TITLE,test
DATA TYPE,INFRARED SPECTRUM
ORIGIN,JASCO
OWNER,test
DATE,26/02/12
TIME,12:36:13
SPECTROMETER/DATA SYSTEM,
LOCALE,1041
RESOLUTION,
DELTAX,1.92847
XUNITS,1/CM
YUNITS,ABSORBANCE
FIRSTX,  998.9459
LASTX, 6001.3891
NPOINTS,    2595
FIRSTY,    -0.00283
MAXY,    -0.00267
MINY,    -0.00724
XYDATA
998.9459,-0.00283288
1000.8743,-0.00281697
1002.8028,-0.00280203
1004.7313,-0.00278476
1006.6597,-0.00276319
1008.5882,-0.00273762
1010.5167,-0.002711
1012.4451,-0.00268809
1014.3736,-0.00267374
1016.3021,-0.00267083
1018.2305,-0.00267912
1020.1590,-0.00269562
1022.0875,-0.00271629
1024.0160,-0.00273791
1025.9445,-0.00275895
1027.8729,-0.00277937
1029.8014,-0.00279975
1031.7299,-0.00282073
1033.6583,-0.00284284
1035.5868,-0.00286671
1037.5153,-0.0028929
1039.4437,-0.00292156
1041.3722,-0.00295214
1043.3007,-0.00298342
1045.2291,-0.00301398
1047.1576,-0.00304278
1049.0861,-0.00306956
1051.0145,-0.00309514
1052.9430,-0.00312145
1054.8715,-0.00315144
1056.7999,-0.00318833
1058.7284,-0.00323439
1060.6569,-0.00328955
1062.5853,-0.00335097
1064.5138,-0.0034139
1066.4423,-0.0034738
1068.3707,-0.00352841
1070.2992,-0.00357852
1072.2277,-0.00362678
1074.1561,-0.00367511
1076.0846,-0.00372249
1078.0131,-0.00376462
1079.9415,-0.00379597
1081.8700,-0.00381332
1083.7985,-0.00381836
1085.7269,-0.00381776
1087.6554,-0.00382
1089.5839,-0.00383108
1091.5123,-0.00385149
1093.4408,-0.00387648
1095.3693,-0.00389927
1097.2977,-0.00391477
1099.2262,-0.00392156
1101.1547,-0.00392114
1103.0831,-0.00391584
1105.0116,-0.00390746
1106.9401,-0.00389744
1108.8685,-0.00388776
1110.7970,-0.00388089
1112.7255,-0.00387838
1114.6539,-0.00387923
1116.5824,-0.00387996
1118.5109,-0.00387662
1120.4393,-0.0038675
1122.3678,-0.00385406
1124.2963,-0.00383935
1126.2247,-0.00382518
1128.1532,-0.00381051
1130.0817,-0.0037926
1132.0101,-0.00376993
1133.9386,-0.00374436
1135.8671,-0.00372061
1137.7955,-0.00370338
1139.7240,-0.00369415
1141.6525,-0.00369027
1143.5809,-0.0036868
1145.5094,-0.00367961
1147.4379,-0.00366746
1149.3663,-0.00365173
1151.2948,-0.00363441
1153.2233,-0.00361631
1155.1517,-0.00359693
1157.0802,-0.00357585
1159.0087,-0.00355437
1160.9371,-0.00353562
1162.8656,-0.00352282
1164.7941,-0.00351679
1166.7225,-0.00351468
1168.6510,-0.00351108
1170.5795,-0.00350121
1172.5079,-0.00348408
1174.4364,-0.00346349
1176.3649,-0.0034459
1178.2933,-0.00343645
1180.2218,-0.00343559
1182.1503,-0.00343861
1184.0787,-0.00343838
1186.0072,-0.00342962
1187.9357,-0.00341177
1189.8641,-0.00338904
1191.7926,-0.00336765
1193.7211,-0.00335227
1195.6495,-0.00334388
1197.5780,-0.00334001
1199.5065,-0.0033367
1201.4349,-0.0033307
1203.3634,-0.00332079
1205.2919,-0.00330778
1207.2203,-0.00329387
1209.1488,-0.00328181
1211.0773,-0.0032742
1213.0057,-0.00327259
1214.9342,-0.00327667
1216.8627,-0.003284
1218.7911,-0.00329064
1220.7196,-0.00329273
1222.6481,-0.00328806
1224.5765,-0.00327675
1226.5050,-0.00326069
1228.4335,-0.00324211
1230.3619,-0.00322264
1232.2904,-0.00320337
1234.2189,-0.00318543
1236.1473,-0.00317035
1238.0758,-0.00315934
1240.0043,-0.00315196
1241.9327,-0.00314552
1243.8612,-0.00313594
1245.7897,-0.00312002
1247.7181,-0.00309746
1249.6466,-0.00307124
1251.5751,-0.00304595
1253.5035,-0.00302524
1255.4320,-0.00301006
1257.3605,-0.00299882
1259.2889,-0.00298901
1261.2174,-0.00297903
1263.1459,-0.0029689
1265.0743,-0.00295951
1267.0028,-0.0029514
1268.9313,-0.00294422
1270.8597,-0.00293717
1272.7882,-0.00292986
1274.7167,-0.00292268
1276.6451,-0.00291641
1278.5736,-0.00291148
1280.5021,-0.00290773
1282.4305,-0.00290476
1284.3590,-0.00290265
1286.2875,-0.00290216
1288.2159,-0.00290422
1290.1444,-0.00290901
1292.0729,-0.0029155
1294.0013,-0.00292192
1295.9298,-0.00292679
1297.8583,-0.00292975
1299.7867,-0.00293158
1301.7152,-0.00293337
1303.6437,-0.00293566
1305.5721,-0.00293808
1307.5006,-0.0029397
1309.4291,-0.00293974
1311.3575,-0.00293799
1313.2860,-0.00293485
1315.2145,-0.00293112
1317.1429,-0.00292781
1319.0714,-0.0029261
1320.9999,-0.00292717
1322.9283,-0.00293189
1324.8568,-0.00294038
1326.7853,-0.0029517
1328.7137,-0.00296408
1330.6422,-0.00297542
1332.5707,-0.00298396
1334.4991,-0.00298878
1336.4276,-0.00299022
1338.3561,-0.00298984
1340.2845,-0.00298992
1342.2130,-0.00299243
1344.1415,-0.00299811
1346.0699,-0.00300611
1347.9984,-0.00301443
1349.9269,-0.00302082
1351.8553,-0.00302355
1353.7838,-0.00302193
1355.7123,-0.00301642
1357.6407,-0.00300841
1359.5692,-0.00300009
1361.4977,-0.00299414
1363.4261,-0.00299296
1365.3546,-0.00299766
1367.2831,-0.00300735
1369.2115,-0.00301936
1371.1400,-0.00303021
1373.0685,-0.00303708
1374.9969,-0.00303906
1376.9254,-0.00303749
1378.8539,-0.00303474
1380.7823,-0.0030326
1382.7108,-0.00303134
1384.6393,-0.00303012
1386.5677,-0.00302816
1388.4962,-0.00302573
1390.4247,-0.00302415
1392.3531,-0.0030249
1394.2816,-0.00302842
1396.2101,-0.00303368
1398.1385,-0.00303887
1400.0670,-0.00304281
1401.9955,-0.0030457
1403.9240,-0.00304861
1405.8524,-0.00305223
1407.7809,-0.00305603
1409.7094,-0.00305845
1411.6378,-0.00305799
1413.5663,-0.00305439
1415.4948,-0.00304929
1417.4232,-0.00304578
1419.3517,-0.00304656
1421.2802,-0.00305174
1423.2086,-0.00305875
1425.1371,-0.00306472
1427.0656,-0.00306877
1428.9940,-0.00307225
1430.9225,-0.00307734
1432.8510,-0.00308496
1434.7794,-0.00309307
1436.7079,-0.00309733
1438.6364,-0.00309423
1440.5648,-0.003084
1442.4933,-0.00307055
1444.4218,-0.00305889
1446.3502,-0.00305245
1448.2787,-0.00305168
1450.2072,-0.00305439
1452.1356,-0.00305755
1454.0641,-0.00305947
1455.9926,-0.00306134
1457.9210,-0.00306614
1459.8495,-0.00307532
1461.7780,-0.0030868
1463.7064,-0.0030968
1465.6349,-0.00310248
1467.5634,-0.00310295
1469.4918,-0.00309917
1471.4203,-0.00309342
1473.3488,-0.00308833
1475.2772,-0.00308545
1477.2057,-0.00308478
1479.1342,-0.00308585
1481.0626,-0.00308868
1482.9911,-0.00309382
1484.9196,-0.00310146
1486.8480,-0.00311074
1488.7765,-0.00311946
1490.7050,-0.003125
1492.6334,-0.00312587
1494.5619,-0.00312241
1496.4904,-0.00311593
1498.4188,-0.00310754
1500.3473,-0.00309798
1502.2758,-0.00308847
1504.2042,-0.00308177
1506.1327,-0.00308172
1508.0612,-0.00309037
1509.9896,-0.00310516
1511.9181,-0.00312056
1513.8466,-0.00313195
1515.7750,-0.00313731
1517.7035,-0.00313688
1519.6320,-0.00313277
1521.5604,-0.00312844
1523.4889,-0.00312721
1525.4174,-0.0031305
1527.3458,-0.0031379
1529.2743,-0.00314845
1531.2028,-0.00316135
1533.1312,-0.00317563
1535.0597,-0.00318968
1536.9882,-0.00320099
1538.9166,-0.00320689
1540.8451,-0.00320671
1542.7736,-0.00320304
1544.7020,-0.00319945
1546.6305,-0.00319744
1548.5590,-0.00319643
1550.4874,-0.00319543
1552.4159,-0.00319409
1554.3444,-0.00319317
1556.2728,-0.00319431
1558.2013,-0.00319884
1560.1298,-0.00320602
1562.0582,-0.00321383
1563.9867,-0.00322099
1565.9152,-0.00322726
1567.8436,-0.00323231
1569.7721,-0.00323506
1571.7006,-0.00323406
1573.6290,-0.003229
1575.5575,-0.00322192
1577.4860,-0.0032165
1579.4144,-0.00321537
1581.3429,-0.00321854
1583.2714,-0.00322399
1585.1998,-0.00322934
1587.1283,-0.0032332
1589.0568,-0.00323558
1590.9852,-0.00323728
1592.9137,-0.00323891
1594.8422,-0.00324023
1596.7706,-0.00324063
1598.6991,-0.00323998
1600.6276,-0.00323919
1602.5560,-0.00323964
1604.4845,-0.00324223
1606.4130,-0.00324661
1608.3414,-0.00325143
1610.2699,-0.00325529
1612.1984,-0.00325755
1614.1268,-0.00325864
1616.0553,-0.00325969
1617.9838,-0.00326175
1619.9122,-0.00326526
1621.8407,-0.00326994
1623.7692,-0.00327524
1625.6976,-0.00328078
1627.6261,-0.00328638
1629.5546,-0.0032918
1631.4830,-0.00329642
1633.4115,-0.00329903
1635.3400,-0.00329833
1637.2684,-0.00329386
1639.1969,-0.00328656
1641.1254,-0.00327814
1643.0538,-0.00326994
1644.9823,-0.00326239
1646.9108,-0.00325514
1648.8392,-0.00324763
1650.7677,-0.00324024
1652.6962,-0.00323494
1654.6246,-0.00323396
1656.5531,-0.00323779
1658.4816,-0.00324517
1660.4100,-0.00325421
1662.3385,-0.00326331
1664.2670,-0.00327162
1666.1954,-0.00327913
1668.1239,-0.00328626
1670.0524,-0.00329292
1671.9808,-0.00329802
1673.9093,-0.00330008
1675.8378,-0.00329851
1677.7662,-0.00329432
1679.6947,-0.00328984
1681.6232,-0.00328788
1683.5516,-0.00329006
1685.4801,-0.00329522
1687.4086,-0.0033001
1689.3370,-0.00330194
1691.2655,-0.00329996
1693.1940,-0.00329511
1695.1224,-0.00328965
1697.0509,-0.0032869
1698.9794,-0.00329009
1700.9078,-0.0032994
1702.8363,-0.003311
1704.7648,-0.00332034
1706.6932,-0.00332516
1708.6217,-0.00332554
1710.5502,-0.0033229
1712.4786,-0.00331947
1714.4071,-0.00331797
1716.3356,-0.00332035
1718.2640,-0.00332608
1720.1925,-0.00333214
1722.1210,-0.00333551
1724.0494,-0.00333498
1725.9779,-0.00333091
1727.9064,-0.00332458
1729.8348,-0.00331793
1731.7633,-0.00331352
1733.6918,-0.00331368
1735.6202,-0.00331899
1737.5487,-0.00332774
1739.4772,-0.0033374
1741.4056,-0.00334617
1743.3341,-0.00335333
1745.2626,-0.0033589
1747.1910,-0.00336346
1749.1195,-0.00336793
1751.0480,-0.00337319
1752.9764,-0.00337955
1754.9049,-0.00338634
1756.8334,-0.00339215
1758.7618,-0.00339544
1760.6903,-0.00339536
1762.6188,-0.00339227
1764.5472,-0.00338768
1766.4757,-0.00338367
1768.4042,-0.003382
1770.3326,-0.00338344
1772.2611,-0.00338758
1774.1896,-0.00339333
1776.1180,-0.00339983
1778.0465,-0.00340683
1779.9750,-0.00341439
1781.9034,-0.00342237
1783.8319,-0.00343034
1785.7604,-0.00343774
1787.6888,-0.00344422
1789.6173,-0.00344985
1791.5458,-0.00345504
1793.4742,-0.00346022
1795.4027,-0.00346561
1797.3312,-0.00347122
1799.2596,-0.00347687
1801.1881,-0.00348221
1803.1166,-0.00348665
1805.0450,-0.00348946
1806.9735,-0.00349009
1808.9020,-0.00348861
1810.8304,-0.00348592
1812.7589,-0.00348361
1814.6874,-0.00348319
1816.6158,-0.00348549
1818.5443,-0.00349029
1820.4728,-0.00349646
1822.4012,-0.00350239
1824.3297,-0.00350653
1826.2582,-0.00350806
1828.1866,-0.00350746
1830.1151,-0.00350632
1832.0436,-0.00350636
1833.9720,-0.00350816
1835.9005,-0.00351088
1837.8290,-0.00351283
1839.7574,-0.0035125
1841.6859,-0.0035096
1843.6144,-0.00350568
1845.5428,-0.00350342
1847.4713,-0.0035047
1849.3998,-0.00350913
1851.3282,-0.00351447
1853.2567,-0.00351819
1855.1852,-0.003519
1857.1136,-0.00351764
1859.0421,-0.00351642
1860.9706,-0.00351801
1862.8990,-0.00352394
1864.8275,-0.00353369
1866.7560,-0.00354484
1868.6844,-0.00355424
1870.6129,-0.00355992
1872.5414,-0.00356204
1874.4698,-0.00356235
1876.3983,-0.0035626
1878.3268,-0.00356336
1880.2552,-0.00356396
1882.1837,-0.00356327
1884.1122,-0.00356081
1886.0406,-0.00355766
1887.9691,-0.00355617
1889.8976,-0.00355865
1891.8260,-0.00356562
1893.7545,-0.00357509
1895.6830,-0.00358347
1897.6115,-0.00358761
1899.5399,-0.00358662
1901.4684,-0.00358224
1903.3969,-0.00357775
1905.3253,-0.00357606
1907.2538,-0.00357816
1909.1823,-0.0035829
1911.1107,-0.00358816
1913.0392,-0.00359244
1914.9677,-0.00359559
1916.8961,-0.00359836
1918.8246,-0.0036013
1920.7531,-0.00360402
1922.6815,-0.00360559
1924.6100,-0.00360549
1926.5385,-0.00360431
1928.4669,-0.00360338
1930.3954,-0.00360378
1932.3239,-0.00360553
1934.2523,-0.00360766
1936.1808,-0.00360911
1938.1093,-0.00360967
1940.0377,-0.00361036
1941.9662,-0.00361278
1943.8947,-0.00361798
1945.8231,-0.00362561
1947.7516,-0.00363411
1949.6801,-0.00364169
1951.6085,-0.00364715
1953.5370,-0.00365021
1955.4655,-0.00365129
1957.3939,-0.00365117
1959.3224,-0.00365073
1961.2509,-0.00365077
1963.1793,-0.0036519
1965.1078,-0.00365428
1967.0363,-0.00365746
1968.9647,-0.0036605
1970.8932,-0.0036624
1972.8217,-0.0036626
1974.7501,-0.00366126
1976.6786,-0.00365901
1978.6071,-0.0036567
1980.5355,-0.00365505
1982.4640,-0.00365467
1984.3925,-0.00365596
1986.3209,-0.00365902
1988.2494,-0.00366339
1990.1779,-0.00366805
1992.1063,-0.00367181
1994.0348,-0.00367411
1995.9633,-0.00367543
1997.8917,-0.00367693
1999.8202,-0.00367943
2001.7487,-0.00368266
2003.6771,-0.0036853
2005.6056,-0.00368605
2007.5341,-0.00368486
2009.4625,-0.00368333
2011.3910,-0.00368373
2013.3195,-0.0036874
2015.2479,-0.00369361
2017.1764,-0.00369987
2019.1049,-0.00370346
2021.0333,-0.00370311
2022.9618,-0.00369958
2024.8903,-0.00369488
2026.8187,-0.00369092
2028.7472,-0.0036886
2030.6757,-0.0036878
2032.6041,-0.00368805
2034.5326,-0.003689
2036.4611,-0.00369057
2038.3895,-0.00369252
2040.3180,-0.00369419
2042.2465,-0.00369462
2044.1749,-0.00369312
2046.1034,-0.0036899
2048.0320,-0.00368623
2049.9604,-0.00368412
2051.8889,-0.00368539
2053.8174,-0.00369069
2055.7458,-0.00369886
2057.6743,-0.00370714
2059.6028,-0.00371221
2061.5313,-0.00371178
2063.4597,-0.00370591
2065.3882,-0.00369718
2067.3167,-0.00368948
2069.2451,-0.00368599
2071.1736,-0.00368747
2073.1021,-0.00369202
2075.0305,-0.00369631
2076.9590,-0.00369765
2078.8875,-0.00369558
2080.8159,-0.00369204
2082.7444,-0.00369004
2084.6729,-0.00369176
2086.6013,-0.00369702
2088.5298,-0.00370334
2090.4583,-0.00370724
2092.3867,-0.00370627
2094.3152,-0.00370033
2096.2437,-0.00369174
2098.1721,-0.00368383
2100.1006,-0.00367905
2102.0291,-0.0036777
2103.9575,-0.00367802
2105.8860,-0.00367749
2107.8145,-0.00367468
2109.7429,-0.00367022
2111.6714,-0.00366645
2113.5999,-0.00366589
2115.5283,-0.0036695
2117.4568,-0.00367595
2119.3853,-0.00368227
2121.3137,-0.00368554
2123.2422,-0.00368457
2125.1707,-0.00368045
2127.0991,-0.00367571
2129.0276,-0.00367271
2130.9561,-0.00367231
2132.8845,-0.00367367
2134.8130,-0.00367523
2136.7415,-0.00367604
2138.6699,-0.0036765
2140.5984,-0.00367788
2142.5269,-0.00368118
2144.4553,-0.00368605
2146.3838,-0.00369092
2148.3123,-0.00369395
2150.2407,-0.00369429
2152.1692,-0.00369253
2154.0977,-0.00369015
2156.0261,-0.00368834
2157.9546,-0.00368724
2159.8831,-0.00368622
2161.8115,-0.00368472
2163.7400,-0.00368301
2165.6685,-0.00368211
2167.5969,-0.00368301
2169.5254,-0.00368582
2171.4539,-0.00368965
2173.3823,-0.00369334
2175.3108,-0.0036963
2177.2393,-0.00369885
2179.1677,-0.00370173
2181.0962,-0.00370519
2183.0247,-0.00370855
2184.9531,-0.00371051
2186.8816,-0.00370997
2188.8101,-0.0037068
2190.7385,-0.00370201
2192.6670,-0.00369722
2194.5955,-0.00369395
2196.5239,-0.00369305
2198.4524,-0.00369446
2200.3809,-0.00369741
2202.3093,-0.00370065
2204.2378,-0.00370294
2206.1663,-0.00370359
2208.0947,-0.00370288
2210.0232,-0.00370204
2211.9517,-0.00370255
2213.8801,-0.00370515
2215.8086,-0.0037091
2217.7371,-0.00371239
2219.6655,-0.00371284
2221.5940,-0.00370954
2223.5225,-0.00370358
2225.4509,-0.00369746
2227.3794,-0.00369361
2229.3079,-0.00369293
2231.2363,-0.00369429
2233.1648,-0.00369545
2235.0933,-0.00369456
2237.0217,-0.0036914
2238.9502,-0.00368736
2240.8787,-0.00368459
2242.8071,-0.00368462
2244.7356,-0.0036877
2246.6641,-0.00369283
2248.5925,-0.00369847
2250.5210,-0.00370329
2252.4495,-0.00370657
2254.3779,-0.0037082
2256.3064,-0.00370841
2258.2349,-0.00370765
2260.1633,-0.00370653
2262.0918,-0.00370577
2264.0203,-0.00370615
2265.9487,-0.00370814
2267.8772,-0.00371169
2269.8057,-0.00371606
2271.7341,-0.00372001
2273.6626,-0.00372221
2275.5911,-0.00372179
2277.5195,-0.00371871
2279.4480,-0.00371376
2281.3765,-0.00370828
2283.3049,-0.00370361
2285.2334,-0.00370063
2287.1619,-0.00369954
2289.0903,-0.00369985
2291.0188,-0.00370063
2292.9473,-0.00370084
2294.8757,-0.00369978
2296.8042,-0.00369743
2298.7327,-0.00369456
2300.6611,-0.00369248
2302.5896,-0.00369238
2304.5181,-0.00369446
2306.4465,-0.0036975
2308.3750,-0.00369909
2310.3035,-0.00369672
2312.2319,-0.00368915
2314.1604,-0.00367722
2316.0889,-0.00366351
2318.0173,-0.00365092
2319.9458,-0.00364116
2321.8743,-0.00363413
2323.8027,-0.00362879
2325.7312,-0.00362474
2327.6597,-0.0036232
2329.5881,-0.00362609
2331.5166,-0.00363394
2333.4451,-0.0036444
2335.3735,-0.00365283
2337.3020,-0.00365488
2339.2305,-0.00364946
2341.1589,-0.0036397
2343.0874,-0.00363051
2345.0159,-0.00362469
2346.9443,-0.00362163
2348.8728,-0.00361878
2350.8013,-0.00361375
2352.7297,-0.0036057
2354.6582,-0.00359609
2356.5867,-0.0035887
2358.5151,-0.00358796
2360.4436,-0.00359565
2362.3721,-0.00360927
2364.3005,-0.00362419
2366.2290,-0.00363687
2368.1575,-0.00364603
2370.0859,-0.00365208
2372.0144,-0.00365634
2373.9429,-0.00366027
2375.8713,-0.00366494
2377.7998,-0.00367076
2379.7283,-0.00367744
2381.6567,-0.00368432
2383.5852,-0.00369077
2385.5137,-0.00369659
2387.4421,-0.00370211
2389.3706,-0.00370789
2391.2991,-0.00371433
2393.2275,-0.00372117
2395.1560,-0.00372756
2397.0845,-0.00373238
2399.0129,-0.00373495
2400.9414,-0.00373553
2402.8699,-0.00373524
2404.7983,-0.00373553
2406.7268,-0.00373738
2408.6553,-0.00374071
2410.5837,-0.00374443
2412.5122,-0.00374708
2414.4407,-0.00374763
2416.3691,-0.00374594
2418.2976,-0.00374253
2420.2261,-0.00373807
2422.1545,-0.00373301
2424.0830,-0.0037278
2426.0115,-0.00372333
2427.9399,-0.00372115
2429.8684,-0.00372285
2431.7969,-0.00372886
2433.7253,-0.00373758
2435.6538,-0.00374567
2437.5823,-0.00374962
2439.5107,-0.00374772
2441.4392,-0.00374128
2443.3677,-0.00373403
2445.2961,-0.00373019
2447.2246,-0.00373226
2449.1531,-0.00373979
2451.0815,-0.00374979
2453.0100,-0.00375836
2454.9385,-0.00376261
2456.8669,-0.00376188
2458.7954,-0.00375775
2460.7239,-0.00375294
2462.6523,-0.00374984
2464.5808,-0.00374933
2466.5093,-0.0037505
2468.4377,-0.00375156
2470.3662,-0.00375112
2472.2947,-0.0037493
2474.2231,-0.00374764
2476.1516,-0.00374806
2478.0801,-0.00375134
2480.0085,-0.00375635
2481.9370,-0.00376059
2483.8655,-0.00376178
2485.7939,-0.0037594
2487.7224,-0.00375524
2489.6509,-0.00375234
2491.5793,-0.00375332
2493.5078,-0.00375883
2495.4363,-0.00376743
2497.3647,-0.00377658
2499.2932,-0.00378403
2501.2217,-0.00378869
2503.1501,-0.00379055
2505.0786,-0.00379001
2507.0071,-0.00378729
2508.9355,-0.00378258
2510.8640,-0.00377655
2512.7925,-0.00377078
2514.7209,-0.00376741
2516.6494,-0.00376824
2518.5779,-0.00377366
2520.5063,-0.00378231
2522.4348,-0.00379167
2524.3633,-0.00379926
2526.2917,-0.00380364
2528.2202,-0.00380485
2530.1487,-0.00380398
2532.0771,-0.00380246
2534.0056,-0.00380145
2535.9341,-0.00380156
2537.8625,-0.00380295
2539.7910,-0.00380546
2541.7195,-0.00380872
2543.6479,-0.00381229
2545.5764,-0.00381569
2547.5049,-0.00381845
2549.4333,-0.00382025
2551.3618,-0.00382086
2553.2903,-0.00382025
2555.2188,-0.00381867
2557.1472,-0.00381681
2559.0757,-0.00381575
2561.0042,-0.00381665
2562.9326,-0.0038202
2564.8611,-0.00382608
2566.7896,-0.00383289
2568.7180,-0.00383856
2570.6465,-0.00384131
2572.5750,-0.00384052
2574.5034,-0.00383715
2576.4319,-0.00383339
2578.3604,-0.00383172
2580.2888,-0.00383392
2582.2173,-0.00384039
2584.1458,-0.00385002
2586.0742,-0.00386064
2588.0027,-0.00386973
2589.9312,-0.00387527
2591.8596,-0.00387641
2593.7881,-0.00387379
2595.7166,-0.00386928
2597.6450,-0.00386521
2599.5735,-0.00386331
2601.5020,-0.00386399
2603.4304,-0.00386648
2605.3589,-0.00386958
2607.2874,-0.00387268
2609.2158,-0.00387596
2611.1443,-0.00387985
2613.0728,-0.00388416
2615.0012,-0.00388782
2616.9297,-0.00388964
2618.8582,-0.0038895
2620.7866,-0.00388887
2622.7151,-0.00389
2624.6436,-0.00389419
2626.5720,-0.00390058
2628.5005,-0.00390662
2630.4290,-0.00390987
2632.3574,-0.00390996
2634.2859,-0.00390877
2636.2144,-0.00390892
2638.1428,-0.00391155
2640.0713,-0.00391531
2641.9998,-0.00391743
2643.9282,-0.00391594
2645.8567,-0.00391124
2647.7852,-0.00390584
2649.7136,-0.00390249
2651.6421,-0.00390234
2653.5706,-0.00390447
2655.4990,-0.00390696
2657.4275,-0.00390849
2659.3560,-0.00390914
2661.2844,-0.00390986
2663.2129,-0.00391131
2665.1414,-0.00391315
2667.0698,-0.00391423
2668.9983,-0.00391359
2670.9268,-0.00391127
2672.8552,-0.00390856
2674.7837,-0.00390728
2676.7122,-0.00390873
2678.6406,-0.0039128
2680.5691,-0.0039178
2682.4976,-0.00392106
2684.4260,-0.00392017
2686.3545,-0.00391438
2688.2830,-0.00390528
2690.2114,-0.00389641
2692.1399,-0.00389171
2694.0684,-0.00389345
2695.9968,-0.00390104
2697.9253,-0.00391126
2699.8538,-0.00392007
2701.7822,-0.00392483
2703.7107,-0.00392566
2705.6392,-0.00392503
2707.5676,-0.00392602
2709.4961,-0.00393023
2711.4246,-0.00393692
2713.3530,-0.0039437
2715.2815,-0.00394832
2717.2100,-0.00395023
2719.1384,-0.00395092
2721.0669,-0.00395281
2722.9954,-0.00395759
2724.9238,-0.00396511
2726.8523,-0.00397353
2728.7808,-0.00398063
2730.7092,-0.00398512
2732.6377,-0.00398723
2734.5662,-0.00398814
2736.4946,-0.00398885
2738.4231,-0.00398924
2740.3516,-0.00398813
2742.2800,-0.00398423
2744.2085,-0.00397729
2746.1370,-0.00396883
2748.0654,-0.00396172
2749.9939,-0.00395886
2751.9224,-0.00396156
2753.8508,-0.00396865
2755.7793,-0.0039769
2757.7078,-0.00398266
2759.6362,-0.00398393
2761.5647,-0.00398161
2763.4932,-0.00397898
2765.4216,-0.00397969
2767.3501,-0.00398536
2769.2786,-0.00399431
2771.2070,-0.0040025
2773.1355,-0.00400595
2775.0640,-0.00400333
2776.9924,-0.00399695
2778.9209,-0.00399153
2780.8494,-0.00399162
2782.7778,-0.00399906
2784.7063,-0.00401204
2786.6348,-0.00402597
2788.5632,-0.00403577
2790.4917,-0.00403812
2792.4202,-0.00403281
2794.3486,-0.00402261
2796.2771,-0.00401197
2798.2056,-0.00400502
2800.1340,-0.004004
2802.0625,-0.00400858
2803.9910,-0.00401645
2805.9194,-0.00402474
2807.8479,-0.00403145
2809.7764,-0.0040361
2811.7048,-0.00403928
2813.6333,-0.00404176
2815.5618,-0.00404365
2817.4902,-0.00404441
2819.4187,-0.00404344
2821.3472,-0.00404076
2823.2756,-0.00403721
2825.2041,-0.00403401
2827.1326,-0.00403215
2829.0610,-0.00403196
2830.9895,-0.00403309
2832.9180,-0.00403495
2834.8464,-0.00403698
2836.7749,-0.00403888
2838.7034,-0.00404057
2840.6318,-0.00404202
2842.5603,-0.00404308
2844.4888,-0.00404345
2846.4172,-0.00404274
2848.3457,-0.0040408
2850.2742,-0.00403805
2852.2026,-0.00403542
2854.1311,-0.00403402
2856.0596,-0.00403445
2857.9880,-0.00403639
2859.9165,-0.0040389
2861.8450,-0.00404125
2863.7734,-0.00404373
2865.7019,-0.00404779
2867.6304,-0.00405517
2869.5588,-0.00406659
2871.4873,-0.00408091
2873.4158,-0.00409532
2875.3442,-0.00410655
2877.2727,-0.00411231
2879.2012,-0.0041121
2881.1296,-0.00410715
2883.0581,-0.00409972
2884.9866,-0.00409227
2886.9150,-0.00408674
2888.8435,-0.00408413
2890.7720,-0.00408426
2892.7004,-0.0040858
2894.6289,-0.00408686
2896.5574,-0.00408591
2898.4858,-0.00408272
2900.4143,-0.0040786
2902.3428,-0.00407574
2904.2712,-0.00407596
2906.1997,-0.00407959
2908.1282,-0.00408527
2910.0566,-0.00409086
2911.9851,-0.00409479
2913.9136,-0.00409687
2915.8420,-0.00409821
2917.7705,-0.00410012
2919.6990,-0.00410297
2921.6274,-0.0041059
2923.5559,-0.00410766
2925.4844,-0.00410791
2927.4128,-0.00410798
2929.3413,-0.00411034
2931.2698,-0.00411697
2933.1982,-0.00412766
2935.1267,-0.00413957
2937.0552,-0.00414844
2938.9836,-0.00415089
2940.9121,-0.00414631
2942.8406,-0.00413726
2944.7690,-0.00412808
2946.6975,-0.00412274
2948.6260,-0.00412297
2950.5544,-0.00412799
2952.4829,-0.00413535
2954.4114,-0.00414245
2956.3398,-0.0041476
2958.2683,-0.00415028
2960.1968,-0.00415085
2962.1252,-0.00415006
2964.0537,-0.00414881
2965.9822,-0.0041481
2967.9106,-0.00414891
2969.8391,-0.00415189
2971.7676,-0.00415715
2973.6960,-0.00416424
2975.6245,-0.00417247
2977.5530,-0.00418127
2979.4814,-0.00419031
2981.4099,-0.00419915
2983.3384,-0.00420693
2985.2668,-0.00421243
2987.1953,-0.00421482
2989.1238,-0.00421448
2991.0522,-0.00421322
2992.9807,-0.00421336
2994.9092,-0.00421627
2996.8376,-0.00422131
2998.7661,-0.0042263
3000.6946,-0.00422922
3002.6230,-0.00422999
3004.5515,-0.00423074
3006.4800,-0.00423426
3008.4084,-0.00424163
3010.3369,-0.00425103
3012.2654,-0.00425863
3014.1938,-0.00426128
3016.1223,-0.00425883
3018.0508,-0.00425436
3019.9792,-0.00425208
3021.9077,-0.00425456
3023.8362,-0.00426105
3025.7646,-0.00426817
3027.6931,-0.00427205
3029.6216,-0.00427055
3031.5500,-0.00426415
3033.4785,-0.00425529
3035.4070,-0.00424693
3037.3354,-0.00424151
3039.2639,-0.00424047
3041.1924,-0.0042444
3043.1208,-0.00425315
3045.0493,-0.00426573
3046.9778,-0.00428037
3048.9063,-0.00429471
3050.8347,-0.00430625
3052.7632,-0.00431292
3054.6917,-0.0043133
3056.6201,-0.00430695
3058.5486,-0.00429472
3060.4771,-0.0042792
3062.4055,-0.00426471
3064.3340,-0.0042564
3066.2625,-0.00425822
3068.1909,-0.00427076
3070.1194,-0.00429031
3072.0479,-0.00431009
3073.9763,-0.00432329
3075.9048,-0.00432635
3077.8333,-0.0043206
3079.7617,-0.00431103
3081.6902,-0.00430311
3083.6187,-0.00429967
3085.5471,-0.00429994
3087.4756,-0.00430125
3089.4041,-0.00430186
3091.3325,-0.00430254
3093.2610,-0.00430582
3095.1895,-0.00431357
3097.1179,-0.00432494
3099.0464,-0.00433634
3100.9749,-0.0043435
3102.9033,-0.00434416
3104.8318,-0.00433931
3106.7603,-0.00433245
3108.6887,-0.00432754
3110.6172,-0.0043272
3112.5457,-0.00433208
3114.4741,-0.00434113
3116.4026,-0.00435227
3118.3311,-0.00436297
3120.2595,-0.00437074
3122.1880,-0.0043739
3124.1165,-0.00437227
3126.0449,-0.00436741
3127.9734,-0.004362
3129.9019,-0.00435861
3131.8303,-0.00435856
3133.7588,-0.00436152
3135.6873,-0.00436611
3137.6157,-0.00437074
3139.5442,-0.0043743
3141.4727,-0.00437627
3143.4011,-0.00437654
3145.3296,-0.00437535
3147.2581,-0.00437327
3149.1865,-0.00437116
3151.1150,-0.00436974
3153.0435,-0.00436919
3154.9719,-0.00436907
3156.9004,-0.00436884
3158.8289,-0.00436854
3160.7573,-0.00436919
3162.6858,-0.00437226
3164.6143,-0.00437862
3166.5427,-0.00438776
3168.4712,-0.00439776
3170.3997,-0.00440624
3172.3281,-0.00441162
3174.2566,-0.00441376
3176.1851,-0.0044138
3178.1135,-0.00441325
3180.0420,-0.00441316
3181.9705,-0.00441378
3183.8989,-0.00441482
3185.8274,-0.00441584
3187.7559,-0.00441659
3189.6843,-0.0044169
3191.6128,-0.00441658
3193.5413,-0.00441547
3195.4697,-0.00441369
3197.3982,-0.00441178
3199.3267,-0.00441068
3201.2551,-0.00441123
3203.1836,-0.00441369
3205.1121,-0.00441756
3207.0405,-0.004422
3208.9690,-0.00442627
3210.8975,-0.0044301
3212.8259,-0.00443333
3214.7544,-0.00443543
3216.6829,-0.00443521
3218.6113,-0.00443136
3220.5398,-0.00442345
3222.4683,-0.00441283
3224.3967,-0.00440239
3226.3252,-0.00439532
3228.2537,-0.00439338
3230.1821,-0.00439597
3232.1106,-0.00440055
3234.0391,-0.00440433
3235.9675,-0.0044059
3237.8960,-0.00440595
3239.8245,-0.00440653
3241.7529,-0.00440974
3243.6814,-0.00441656
3245.6099,-0.00442667
3247.5383,-0.00443897
3249.4668,-0.00445222
3251.3953,-0.00446529
3253.3237,-0.00447695
3255.2522,-0.00448583
3257.1807,-0.00449077
3259.1091,-0.00449156
3261.0376,-0.00448943
3262.9661,-0.00448678
3264.8945,-0.00448615
3266.8230,-0.0044889
3268.7515,-0.00449444
3270.6799,-0.00450052
3272.6084,-0.0045043
3274.5369,-0.00450388
3276.4653,-0.00449931
3278.3938,-0.00449264
3280.3223,-0.00448703
3282.2507,-0.00448531
3284.1792,-0.00448884
3286.1077,-0.00449704
3288.0361,-0.00450765
3289.9646,-0.00451776
3291.8931,-0.00452483
3293.8215,-0.00452751
3295.7500,-0.00452586
3297.6785,-0.00452111
3299.6069,-0.00451512
3301.5354,-0.0045099
3303.4639,-0.004507
3305.3923,-0.00450713
3307.3208,-0.00450977
3309.2493,-0.00451337
3311.1777,-0.00451602
3313.1062,-0.00451658
3315.0347,-0.0045154
3316.9631,-0.00451421
3318.8916,-0.00451494
3320.8201,-0.00451842
3322.7485,-0.00452364
3324.6770,-0.00452847
3326.6055,-0.00453113
3328.5339,-0.00453159
3330.4624,-0.00453164
3332.3909,-0.00453365
3334.3193,-0.00453896
3336.2478,-0.00454706
3338.1763,-0.00455601
3340.1047,-0.00456368
3342.0332,-0.00456867
3343.9617,-0.00457048
3345.8901,-0.00456908
3347.8186,-0.00456486
3349.7471,-0.00455898
3351.6755,-0.00455391
3353.6040,-0.00455298
3355.5325,-0.00455885
3357.4609,-0.00457176
3359.3894,-0.00458877
3361.3179,-0.00460491
3363.2463,-0.00461552
3365.1748,-0.00461833
3367.1033,-0.00461399
3369.0317,-0.00460502
3370.9602,-0.0045943
3372.8887,-0.00458431
3374.8171,-0.00457731
3376.7456,-0.00457551
3378.6741,-0.0045805
3380.6025,-0.00459204
3382.5310,-0.00460739
3384.4595,-0.00462218
3386.3879,-0.0046326
3388.3164,-0.00463753
3390.2449,-0.00463896
3392.1733,-0.0046403
3394.1018,-0.00464383
3396.0303,-0.00464916
3397.9587,-0.00465372
3399.8872,-0.00465493
3401.8157,-0.00465216
3403.7441,-0.0046473
3405.6726,-0.00464355
3407.6011,-0.00464356
3409.5295,-0.00464809
3411.4580,-0.00465587
3413.3865,-0.0046645
3415.3149,-0.00467174
3417.2434,-0.0046766
3419.1719,-0.00467971
3421.1003,-0.00468304
3423.0288,-0.00468866
3424.9573,-0.00469734
3426.8857,-0.00470776
3428.8142,-0.00471711
3430.7427,-0.00472278
3432.6711,-0.00472416
3434.5996,-0.00472311
3436.5281,-0.00472247
3438.4565,-0.0047237
3440.3850,-0.00472543
3442.3135,-0.00472434
3444.2419,-0.00471795
3446.1704,-0.00470721
3448.0989,-0.00469674
3450.0273,-0.00469214
3451.9558,-0.00469627
3453.8843,-0.00470727
3455.8127,-0.00471965
3457.7412,-0.00472733
3459.6697,-0.00472684
3461.5981,-0.00471886
3463.5266,-0.00470751
3465.4551,-0.00469818
3467.3835,-0.00469514
3469.3120,-0.00470009
3471.2405,-0.00471181
3473.1689,-0.00472669
3475.0974,-0.00473989
3477.0259,-0.00474718
3478.9543,-0.00474673
3480.8828,-0.00474029
3482.8113,-0.00473261
3484.7397,-0.00472935
3486.6682,-0.00473444
3488.5967,-0.00474833
3490.5251,-0.00476796
3492.4536,-0.00478807
3494.3821,-0.00480285
3496.3105,-0.00480747
3498.2390,-0.00479935
3500.1675,-0.00477944
3502.0959,-0.0047527
3504.0244,-0.00472722
3505.9529,-0.00471138
3507.8813,-0.00471017
3509.8098,-0.00472284
3511.7383,-0.00474348
3513.6667,-0.00476419
3515.5952,-0.0047789
3517.5237,-0.00478553
3519.4521,-0.0047858
3521.3806,-0.0047833
3523.3091,-0.00478136
3525.2375,-0.0047817
3527.1660,-0.00478462
3529.0945,-0.00478973
3531.0229,-0.00479651
3532.9514,-0.00480412
3534.8799,-0.00481099
3536.8083,-0.00481484
3538.7368,-0.0048135
3540.6653,-0.00480617
3542.5938,-0.00479437
3544.5222,-0.00478189
3546.4507,-0.00477339
3548.3792,-0.00477213
3550.3076,-0.00477831
3552.2361,-0.00478909
3554.1646,-0.00480044
3556.0930,-0.00480937
3558.0215,-0.00481524
3559.9500,-0.00481953
3561.8784,-0.00482449
3563.8069,-0.00483122
3565.7354,-0.00483809
3567.6638,-0.00484116
3569.5923,-0.00483694
3571.5208,-0.00482528
3573.4492,-0.00480976
3575.3777,-0.00479587
3577.3062,-0.00478868
3579.2346,-0.00479111
3581.1631,-0.00480272
3583.0916,-0.00481961
3585.0200,-0.00483583
3586.9485,-0.00484636
3588.8770,-0.00484997
3590.8054,-0.00484935
3592.7339,-0.00484824
3594.6624,-0.00484803
3596.5908,-0.00484666
3598.5193,-0.00484044
3600.4478,-0.00482735
3602.3762,-0.00480937
3604.3047,-0.00479239
3606.2332,-0.00478338
3608.1616,-0.00478667
3610.0901,-0.00480135
3612.0186,-0.00482178
3613.9470,-0.0048412
3615.8755,-0.00485588
3617.8040,-0.00486634
3619.7324,-0.00487499
3621.6609,-0.00488285
3623.5894,-0.00488837
3625.5178,-0.0048889
3627.4463,-0.00488354
3629.3748,-0.00487515
3631.3032,-0.00486909
3633.2317,-0.00486886
3635.1602,-0.00487336
3637.0886,-0.00487846
3639.0171,-0.0048801
3640.9456,-0.00487641
3642.8740,-0.00486846
3644.8025,-0.00486041
3646.7310,-0.00485843
3648.6594,-0.00486712
3650.5879,-0.004885
3652.5164,-0.00490457
3654.4448,-0.00491803
3656.3733,-0.00492197
3658.3018,-0.00491736
3660.2302,-0.00490739
3662.1587,-0.00489546
3664.0872,-0.00488383
3666.0156,-0.00487308
3667.9441,-0.00486264
3669.8726,-0.00485241
3671.8010,-0.00484457
3673.7295,-0.00484302
3675.6580,-0.00484913
3677.5864,-0.00485877
3679.5149,-0.00486511
3681.4434,-0.00486291
3683.3718,-0.00485058
3685.3003,-0.0048309
3687.2288,-0.00481119
3689.1572,-0.00480062
3691.0857,-0.00480419
3693.0142,-0.0048189
3694.9426,-0.00483719
3696.8711,-0.00485273
3698.7996,-0.00486257
3700.7280,-0.00486628
3702.6565,-0.00486463
3704.5850,-0.00485928
3706.5134,-0.00485331
3708.4419,-0.00485129
3710.3704,-0.00485754
3712.2988,-0.004873
3714.2273,-0.00489411
3716.1558,-0.00491537
3718.0842,-0.004933
3720.0127,-0.00494667
3721.9412,-0.00495843
3723.8696,-0.00497039
3725.7981,-0.00498241
3727.7266,-0.00499188
3729.6550,-0.00499551
3731.5835,-0.00499219
3733.5120,-0.00498449
3735.4404,-0.00497709
3737.3689,-0.00497245
3739.2974,-0.00496806
3741.2258,-0.00495802
3743.1543,-0.00493722
3745.0828,-0.00490562
3747.0112,-0.00487085
3748.9397,-0.00484583
3750.8682,-0.00483992
3752.7966,-0.00485219
3754.7251,-0.00487451
3756.6536,-0.00489862
3758.5820,-0.00491951
3760.5105,-0.00493494
3762.4390,-0.0049438
3764.3674,-0.00494516
3766.2959,-0.00493857
3768.2244,-0.00492495
3770.1528,-0.00490684
3772.0813,-0.00488744
3774.0098,-0.00486914
3775.9382,-0.00485318
3777.8667,-0.00484039
3779.7952,-0.00483217
3781.7236,-0.00483056
3783.6521,-0.00483686
3785.5806,-0.00484993
3787.5090,-0.00486599
3789.4375,-0.00488005
3791.3660,-0.00488791
3793.2944,-0.00488755
3795.2229,-0.00487989
3797.1514,-0.00486885
3799.0798,-0.00486047
3801.0083,-0.00486052
3802.9368,-0.00487116
3804.8652,-0.00488936
3806.7937,-0.00490907
3808.7222,-0.00492462
3810.6506,-0.00493233
3812.5791,-0.00493028
3814.5076,-0.00491821
3816.4360,-0.00489822
3818.3645,-0.00487567
3820.2930,-0.00485792
3822.2214,-0.00485074
3824.1499,-0.00485577
3826.0784,-0.00487146
3828.0068,-0.00489505
3829.9353,-0.00492283
3831.8638,-0.00494935
3833.7922,-0.00496732
3835.7207,-0.00497048
3837.6492,-0.0049595
3839.5776,-0.00494434
3841.5061,-0.00493719
3843.4346,-0.00494316
3845.3630,-0.00495881
3847.2915,-0.00497595
3849.2200,-0.00498541
3851.1484,-0.00498104
3853.0769,-0.00496486
3855.0054,-0.00494772
3856.9338,-0.00494014
3858.8623,-0.00494367
3860.7908,-0.00495269
3862.7192,-0.00496026
3864.6477,-0.00496176
3866.5762,-0.00495663
3868.5046,-0.00494839
3870.4331,-0.00494236
3872.3616,-0.00494213
3874.2900,-0.00494834
3876.2185,-0.0049601
3878.1470,-0.00497637
3880.0754,-0.00499595
3882.0039,-0.00501656
3883.9324,-0.0050343
3885.8608,-0.0050448
3887.7893,-0.0050456
3889.7178,-0.00503798
3891.6462,-0.00502633
3893.5747,-0.00501596
3895.5032,-0.005011
3897.4316,-0.00501316
3899.3601,-0.00502114
3901.2886,-0.00503107
3903.2170,-0.00503856
3905.1455,-0.00504192
3907.0740,-0.00504302
3909.0024,-0.00504531
3910.9309,-0.00505157
3912.8594,-0.00506273
3914.7878,-0.00507734
3916.7163,-0.00509165
3918.6448,-0.00510076
3920.5732,-0.00510108
3922.5017,-0.00509233
3924.4302,-0.00507754
3926.3586,-0.00506143
3928.2871,-0.00504856
3930.2156,-0.00504202
3932.1440,-0.00504291
3934.0725,-0.00505083
3936.0010,-0.00506479
3937.9294,-0.00508369
3939.8579,-0.00510556
3941.7864,-0.00512673
3943.7148,-0.00514191
3945.6433,-0.00514626
3947.5718,-0.0051382
3949.5002,-0.00512074
3951.4287,-0.00509966
3953.3572,-0.00507999
3955.2856,-0.00506373
3957.2141,-0.00505022
3959.1426,-0.00503863
3961.0710,-0.00503015
3962.9995,-0.0050276
3964.9280,-0.00503257
3966.8564,-0.0050425
3968.7849,-0.00505069
3970.7134,-0.00505009
3972.6418,-0.00503856
3974.5703,-0.00502148
3976.4988,-0.00500913
3978.4272,-0.00501023
3980.3557,-0.00502617
3982.2842,-0.00505032
3984.2126,-0.00507262
3986.1411,-0.00508593
3988.0696,-0.00508948
3989.9980,-0.00508745
3991.9265,-0.00508447
3993.8550,-0.00508219
3995.7834,-0.00507954
3997.7119,-0.00507591
3999.6404,-0.00507353
4001.5688,-0.00507665
4003.4973,-0.00508793
4005.4258,-0.00510557
4007.3542,-0.00512396
4009.2827,-0.00513776
4011.2112,-0.00514593
4013.1396,-0.00515223
4015.0681,-0.00516147
4016.9966,-0.00517468
4018.9250,-0.00518731
4020.8535,-0.00519202
4022.7820,-0.00518413
4024.7104,-0.00516531
4026.6389,-0.00514295
4028.5674,-0.00512565
4030.4958,-0.00511818
4032.4243,-0.00511943
4034.3528,-0.00512412
4036.2813,-0.00512667
4038.2097,-0.00512447
4040.1382,-0.00511877
4042.0667,-0.0051132
4043.9951,-0.00511141
4045.9236,-0.00511507
4047.8521,-0.00512335
4049.7805,-0.0051336
4051.7090,-0.00514271
4053.6375,-0.00514814
4055.5659,-0.00514847
4057.4944,-0.00514333
4059.4229,-0.00513328
4061.3513,-0.0051199
4063.2798,-0.00510596
4065.2083,-0.00509524
4067.1367,-0.00509138
4069.0652,-0.00509632
4070.9937,-0.00510914
4072.9221,-0.00512624
4074.8506,-0.00514303
4076.7791,-0.00515588
4078.7075,-0.00516323
4080.6360,-0.00516532
4082.5645,-0.0051633
4084.4929,-0.00515886
4086.4214,-0.00515448
4088.3499,-0.0051536
4090.2783,-0.00515938
4092.2068,-0.00517264
4094.1353,-0.00519037
4096.0640,-0.00520676
4097.9922,-0.00521656
4099.9209,-0.00521855
4101.8491,-0.00521647
4103.7778,-0.00521631
4105.7061,-0.005222
4107.6348,-0.0052328
4109.5630,-0.0052445
4111.4917,-0.00525329
4113.4199,-0.00525896
4115.3486,-0.0052647
4117.2769,-0.00527363
4119.2056,-0.00528501
4121.1338,-0.0052933
4123.0625,-0.00529129
4124.9907,-0.00527485
4126.9194,-0.0052463
4128.8477,-0.00521369
4130.7764,-0.00518682
4132.7046,-0.0051724
4134.6333,-0.00517143
4136.5615,-0.00518
4138.4902,-0.00519265
4140.4185,-0.00520582
4142.3472,-0.0052193
4144.2754,-0.00523495
4146.2041,-0.00525402
4148.1323,-0.00527488
4150.0610,-0.00529306
4151.9893,-0.00530352
4153.9180,-0.00530363
4155.8462,-0.0052947
4157.7749,-0.00528094
4159.7031,-0.00526656
4161.6318,-0.00525336
4163.5601,-0.00524041
4165.4888,-0.00522633
4167.4170,-0.00521201
4169.3457,-0.00520156
4171.2739,-0.00520023
4173.2026,-0.00521066
4175.1309,-0.00523017
4177.0596,-0.00525139
4178.9878,-0.00526635
4180.9165,-0.00527132
4182.8447,-0.00526928
4184.7734,-0.00526794
4186.7017,-0.00527442
4188.6304,-0.00529013
4190.5586,-0.00530942
4192.4873,-0.00532315
4194.4155,-0.00532496
4196.3442,-0.00531592
4198.2725,-0.00530425
4200.2012,-0.00530006
4202.1294,-0.00530877
4204.0581,-0.00532761
4205.9863,-0.00534764
4207.9150,-0.00535964
4209.8433,-0.00535976
4211.7720,-0.00535108
4213.7002,-0.00534052
4215.6289,-0.00533379
4217.5571,-0.00533222
4219.4858,-0.00533316
4221.4141,-0.00533327
4223.3428,-0.00533134
4225.2710,-0.00532888
4227.1997,-0.00532808
4229.1279,-0.00532942
4231.0566,-0.00533083
4232.9849,-0.00532918
4234.9136,-0.00532279
4236.8418,-0.00531316
4238.7705,-0.00530463
4240.6987,-0.00530218
4242.6274,-0.00530869
4244.5557,-0.00532338
4246.4844,-0.00534213
4248.4126,-0.00535946
4250.3413,-0.00537108
4252.2695,-0.00537566
4254.1982,-0.00537479
4256.1265,-0.00537161
4258.0552,-0.0053688
4259.9834,-0.00536744
4261.9121,-0.00536727
4263.8403,-0.0053679
4265.7690,-0.0053699
4267.6973,-0.00537477
4269.6260,-0.00538399
4271.5542,-0.00539773
4273.4829,-0.00541455
4275.4111,-0.00543205
4277.3398,-0.00544795
4279.2681,-0.00546053
4281.1968,-0.00546824
4283.1250,-0.00546922
4285.0537,-0.00546168
4286.9819,-0.00544539
4288.9106,-0.00542305
4290.8389,-0.0054001
4292.7676,-0.00538246
4294.6958,-0.00537337
4296.6245,-0.00537165
4298.5527,-0.00537294
4300.4814,-0.00537318
4302.4097,-0.00537183
4304.3384,-0.00537231
4306.2666,-0.00537924
4308.1953,-0.00539461
4310.1235,-0.00541582
4312.0522,-0.00543715
4313.9805,-0.00545337
4315.9092,-0.00546268
4317.8374,-0.00546697
4319.7661,-0.00546937
4321.6943,-0.00547137
4323.6230,-0.00547172
4325.5513,-0.00546789
4327.4800,-0.00545854
4329.4082,-0.00544531
4331.3369,-0.00543258
4333.2651,-0.00542546
4335.1938,-0.00542747
4337.1221,-0.00543888
4339.0508,-0.00545656
4340.9790,-0.00547526
4342.9077,-0.00548971
4344.8359,-0.00549682
4346.7646,-0.00549681
4348.6929,-0.0054926
4350.6216,-0.00548791
4352.5498,-0.00548509
4354.4785,-0.00548433
4356.4067,-0.00548447
4358.3354,-0.00548477
4360.2637,-0.00548584
4362.1924,-0.0054892
4364.1206,-0.00549591
4366.0493,-0.00550563
4367.9775,-0.00551715
4369.9063,-0.00552943
4371.8345,-0.00554214
4373.7632,-0.00555489
4375.6914,-0.00556593
4377.6201,-0.00557202
4379.5483,-0.00556986
4381.4771,-0.0055585
4383.4053,-0.00554064
4385.3340,-0.00552182
4387.2622,-0.00550781
4389.1909,-0.00550231
4391.1191,-0.00550599
4393.0479,-0.00551724
4394.9761,-0.00553346
4396.9048,-0.00555178
4398.8330,-0.00556931
4400.7617,-0.00558325
4402.6899,-0.00559163
4404.6187,-0.00559413
4406.5469,-0.00559247
4408.4756,-0.00558965
4410.4038,-0.00558858
4412.3325,-0.00559063
4414.2607,-0.00559477
4416.1895,-0.00559777
4418.1177,-0.00559532
4420.0464,-0.00558398
4421.9746,-0.00556343
4423.9033,-0.00553788
4425.8315,-0.00551546
4427.7603,-0.005505
4429.6885,-0.00551164
4431.6172,-0.0055335
4433.5454,-0.00556208
4435.4741,-0.0055864
4437.4023,-0.00559867
4439.3311,-0.00559807
4441.2593,-0.00559022
4443.1880,-0.00558296
4445.1162,-0.00558141
4447.0449,-0.00558554
4448.9731,-0.00559133
4450.9019,-0.00559444
4452.8301,-0.00559332
4454.7588,-0.00558992
4456.6870,-0.00558784
4458.6157,-0.00558974
4460.5439,-0.00559589
4462.4727,-0.00560476
4464.4009,-0.00561466
4466.3296,-0.00562509
4468.2578,-0.0056366
4470.1865,-0.00564965
4472.1147,-0.00566361
4474.0435,-0.00567672
4475.9717,-0.00568709
4477.9004,-0.0056937
4479.8286,-0.00569653
4481.7573,-0.00569586
4483.6855,-0.00569177
4485.6143,-0.00568438
4487.5425,-0.00567497
4489.4712,-0.00566669
4491.3994,-0.00566388
4493.3281,-0.00567001
4495.2563,-0.00568552
4497.1851,-0.00570706
4499.1133,-0.00572868
4501.0420,-0.00574439
4502.9702,-0.00575041
4504.8989,-0.00574617
4506.8271,-0.00573397
4508.7559,-0.00571779
4510.6841,-0.0057021
4512.6128,-0.00569075
4514.5410,-0.00568631
4516.4697,-0.00568967
4518.3979,-0.00570021
4520.3267,-0.00571629
4522.2549,-0.0057356
4524.1836,-0.00575529
4526.1118,-0.00577197
4528.0405,-0.00578219
4529.9688,-0.00578376
4531.8975,-0.00577713
4533.8257,-0.00576566
4535.7544,-0.00575424
4537.6826,-0.00574678
4539.6113,-0.00574454
4541.5396,-0.00574642
4543.4683,-0.00575084
4545.3965,-0.00575754
4547.3252,-0.0057675
4549.2534,-0.00578122
4551.1821,-0.00579698
4553.1104,-0.00581095
4555.0391,-0.00581919
4556.9673,-0.00582008
4558.8960,-0.00581491
4560.8242,-0.0058065
4562.7529,-0.00579709
4564.6812,-0.00578743
4566.6099,-0.00577758
4568.5381,-0.00576823
4570.4668,-0.00576093
4572.3950,-0.00575677
4574.3237,-0.00575501
4576.2520,-0.00575328
4578.1807,-0.00574963
4580.1089,-0.00574486
4582.0376,-0.00574292
4583.9658,-0.00574861
4585.8945,-0.0057641
4587.8228,-0.00578681
4589.7515,-0.00581042
4591.6797,-0.00582816
4593.6084,-0.00583628
4595.5366,-0.00583538
4597.4653,-0.00582915
4599.3936,-0.00582182
4601.3223,-0.00581607
4603.2505,-0.00581256
4605.1792,-0.00581063
4607.1074,-0.00580929
4609.0361,-0.00580777
4610.9644,-0.00580551
4612.8931,-0.00580209
4614.8213,-0.00579749
4616.7500,-0.00579229
4618.6782,-0.00578769
4620.6069,-0.00578499
4622.5352,-0.0057847
4624.4639,-0.00578595
4626.3921,-0.00578662
4628.3208,-0.00578424
4630.2490,-0.00577736
4632.1777,-0.00576663
4634.1060,-0.00575486
4636.0347,-0.00574593
4637.9629,-0.00574301
4639.8916,-0.00574696
4641.8198,-0.00575585
4643.7485,-0.00576604
4645.6768,-0.00577403
4647.6055,-0.00577821
4649.5337,-0.00577925
4651.4624,-0.00577917
4653.3906,-0.00577991
4655.3193,-0.00578247
4657.2476,-0.00578708
4659.1763,-0.00579381
4661.1045,-0.00580281
4663.0332,-0.00581366
4664.9614,-0.00582461
4666.8901,-0.00583264
4668.8184,-0.00583492
4670.7471,-0.00583073
4672.6753,-0.00582233
4674.6040,-0.00581384
4676.5322,-0.00580874
4678.4609,-0.00580786
4680.3892,-0.0058093
4682.3179,-0.0058103
4684.2461,-0.00580944
4686.1748,-0.00580734
4688.1030,-0.00580543
4690.0317,-0.00580407
4691.9600,-0.00580189
4693.8887,-0.00579711
4695.8169,-0.00578964
4697.7456,-0.00578225
4699.6738,-0.00577927
4701.6025,-0.00578374
4703.5308,-0.00579504
4705.4595,-0.00580871
4707.3877,-0.00581905
4709.3164,-0.00582255
4711.2446,-0.00582013
4713.1733,-0.00581663
4715.1016,-0.0058179
4717.0303,-0.00582721
4718.9585,-0.00584307
4720.8872,-0.00585966
4722.8154,-0.00586972
4724.7441,-0.00586854
4726.6724,-0.00585701
4728.6011,-0.0058418
4730.5293,-0.00583232
4732.4580,-0.00583557
4734.3862,-0.0058515
4736.3149,-0.005872
4738.2432,-0.0058846
4740.1719,-0.00587952
4742.1001,-0.00585607
4744.0288,-0.00582441
4745.9570,-0.00580093
4747.8857,-0.0057996
4749.8140,-0.00582423
4751.7427,-0.00586639
4753.6709,-0.00591023
4755.5996,-0.00594132
4757.5278,-0.00595414
4759.4565,-0.0059538
4761.3848,-0.00595153
4763.3135,-0.00595725
4765.2417,-0.00597393
4767.1704,-0.00599694
4769.0986,-0.00601789
4771.0273,-0.00602993
4772.9556,-0.00603094
4774.8843,-0.00602319
4776.8125,-0.00601046
4778.7412,-0.00599546
4780.6694,-0.00597904
4782.5981,-0.00596141
4784.5264,-0.00594355
4786.4551,-0.00592747
4788.3833,-0.0059149
4790.3120,-0.00590603
4792.2402,-0.00589937
4794.1689,-0.00589331
4796.0972,-0.00588773
4798.0259,-0.0058844
4799.9541,-0.00588545
4801.8828,-0.0058914
4803.8110,-0.00590039
4805.7397,-0.00590951
4807.6680,-0.00591697
4809.5967,-0.00592311
4811.5249,-0.00592924
4813.4536,-0.00593511
4815.3818,-0.00593751
4817.3105,-0.00593158
4819.2388,-0.00591445
4821.1675,-0.00588852
4823.0957,-0.00586192
4825.0244,-0.00584519
4826.9526,-0.00584634
4828.8813,-0.00586719
4830.8096,-0.00590319
4832.7383,-0.00594654
4834.6665,-0.00599024
4836.5952,-0.00603044
4838.5234,-0.00606606
4840.4521,-0.00609645
4842.3804,-0.00611944
4844.3091,-0.00613135
4846.2373,-0.00612911
4848.1660,-0.00611282
4850.0942,-0.00608678
4852.0229,-0.00605819
4853.9512,-0.00603423
4855.8799,-0.00601936
4857.8081,-0.0060144
4859.7368,-0.0060173
4861.6650,-0.0060246
4863.5938,-0.00603252
4865.5220,-0.00603758
4867.4507,-0.00603728
4869.3789,-0.00603129
4871.3076,-0.00602229
4873.2358,-0.00601548
4875.1646,-0.00601616
4877.0928,-0.0060265
4879.0215,-0.00604377
4880.9497,-0.00606144
4882.8784,-0.0060726
4884.8066,-0.00607355
4886.7354,-0.00606521
4888.6636,-0.00605175
4890.5923,-0.00603785
4892.5205,-0.00602642
4894.4492,-0.00601803
4896.3774,-0.00601165
4898.3062,-0.00600582
4900.2344,-0.00599959
4902.1631,-0.00599303
4904.0913,-0.00598746
4906.0200,-0.00598498
4907.9482,-0.00598748
4909.8770,-0.00599521
4911.8052,-0.00600612
4913.7339,-0.00601665
4915.6621,-0.00602398
4917.5908,-0.00602817
4919.5190,-0.00603281
4921.4478,-0.00604325
4923.3760,-0.00606351
4925.3047,-0.00609349
4927.2329,-0.00612815
4929.1616,-0.00615906
4931.0898,-0.00617763
4933.0186,-0.00617865
4934.9468,-0.00616255
4936.8755,-0.00613533
4938.8037,-0.00610605
4940.7324,-0.00608292
4942.6606,-0.00607003
4944.5894,-0.00606656
4946.5176,-0.0060688
4948.4463,-0.00607359
4950.3745,-0.00608054
4952.3032,-0.00609128
4954.2314,-0.00610666
4956.1602,-0.00612427
4958.0884,-0.0061386
4960.0171,-0.0061442
4961.9453,-0.00613935
4963.8740,-0.00612764
4965.8022,-0.00611617
4967.7310,-0.00611188
4969.6592,-0.00611871
4971.5879,-0.00613695
4973.5161,-0.00616438
4975.4448,-0.0061971
4977.3730,-0.00622934
4979.3018,-0.00625319
4981.2300,-0.00626018
4983.1587,-0.00624528
4985.0869,-0.00621109
4987.0156,-0.00616876
4988.9438,-0.0061336
4990.8726,-0.0061173
4992.8008,-0.00612187
4994.7295,-0.00613939
4996.6577,-0.00615813
4998.5864,-0.00617013
5000.5146,-0.00617492
5002.4434,-0.00617691
5004.3716,-0.00617928
5006.3003,-0.00618006
5008.2285,-0.00617392
5010.1572,-0.00615806
5012.0854,-0.00613688
5014.0142,-0.00612085
5015.9424,-0.00612031
5017.8711,-0.00613878
5019.7993,-0.00617111
5021.7280,-0.00620742
5023.6563,-0.00623915
5025.5850,-0.00626234
5027.5132,-0.00627657
5029.4419,-0.00628181
5031.3701,-0.00627704
5033.2988,-0.00626201
5035.2271,-0.00623966
5037.1558,-0.00621601
5039.0840,-0.00619674
5041.0127,-0.0061834
5042.9409,-0.00617293
5044.8696,-0.00616134
5046.7979,-0.00614837
5048.7266,-0.00613885
5050.6548,-0.00613928
5052.5835,-0.00615232
5054.5117,-0.0061741
5056.4404,-0.00619654
5058.3687,-0.00621274
5060.2974,-0.00622112
5062.2256,-0.0062253
5064.1543,-0.00623034
5066.0825,-0.0062389
5068.0112,-0.00625013
5069.9395,-0.00626141
5071.8682,-0.00627079
5073.7964,-0.00627791
5075.7251,-0.00628316
5077.6533,-0.00628644
5079.5820,-0.00628691
5081.5103,-0.00628408
5083.4390,-0.00627893
5085.3672,-0.00627419
5087.2959,-0.00627348
5089.2241,-0.00628
5091.1528,-0.00629538
5093.0811,-0.00631898
5095.0098,-0.00634786
5096.9380,-0.0063773
5098.8667,-0.00640208
5100.7949,-0.00641827
5102.7236,-0.0064246
5104.6519,-0.00642286
5106.5806,-0.00641688
5108.5088,-0.00641072
5110.4375,-0.00640702
5112.3657,-0.00640604
5114.2944,-0.00640577
5116.2227,-0.00640289
5118.1514,-0.00639441
5120.0796,-0.00637954
5122.0083,-0.00636111
5123.9365,-0.00634512
5125.8652,-0.00633813
5127.7935,-0.00634325
5129.7222,-0.00635736
5131.6504,-0.00637173
5133.5791,-0.00637662
5135.5073,-0.00636727
5137.4360,-0.00634738
5139.3643,-0.0063275
5141.2930,-0.00631904
5143.2212,-0.00632789
5145.1499,-0.00635178
5147.0781,-0.00638277
5149.0068,-0.00641235
5150.9351,-0.00643541
5152.8638,-0.00645045
5154.7920,-0.00645734
5156.7207,-0.00645521
5158.6489,-0.00644305
5160.5776,-0.00642211
5162.5059,-0.00639743
5164.4346,-0.00637641
5166.3628,-0.00636484
5168.2915,-0.00636355
5170.2197,-0.00636846
5172.1484,-0.00637406
5174.0767,-0.00637748
5176.0054,-0.00638
5177.9336,-0.00638497
5179.8623,-0.00639429
5181.7905,-0.00640637
5183.7192,-0.00641695
5185.6475,-0.00642177
5187.5762,-0.00641849
5189.5044,-0.006407
5191.4331,-0.00638866
5193.3613,-0.00636617
5195.2900,-0.00634401
5197.2183,-0.00632818
5199.1470,-0.00632416
5201.0752,-0.00633387
5203.0039,-0.00635402
5204.9321,-0.00637788
5206.8608,-0.00639983
5208.7891,-0.00641939
5210.7178,-0.0064405
5212.6460,-0.00646646
5214.5747,-0.00649505
5216.5029,-0.00651829
5218.4316,-0.00652752
5220.3599,-0.00652017
5222.2886,-0.00650327
5224.2168,-0.00649006
5226.1455,-0.00649118
5228.0737,-0.00650728
5230.0024,-0.00652886
5231.9307,-0.00654323
5233.8594,-0.00654275
5235.7876,-0.00652811
5237.7163,-0.00650539
5239.6445,-0.00648027
5241.5732,-0.00645459
5243.5015,-0.00642753
5245.4302,-0.00639994
5247.3584,-0.00637733
5249.2871,-0.00636796
5251.2153,-0.00637727
5253.1440,-0.00640336
5255.0723,-0.00643743
5257.0010,-0.00646835
5258.9292,-0.00648786
5260.8579,-0.00649338
5262.7861,-0.00648751
5264.7148,-0.00647565
5266.6431,-0.00646378
5268.5718,-0.0064574
5270.5000,-0.00646072
5272.4287,-0.00647497
5274.3569,-0.00649635
5276.2856,-0.00651592
5278.2139,-0.00652316
5280.1426,-0.0065121
5282.0708,-0.00648581
5283.9995,-0.00645512
5285.9277,-0.00643179
5287.8564,-0.00642088
5289.7847,-0.00641847
5291.7134,-0.0064165
5293.6416,-0.00641058
5295.5703,-0.00640428
5297.4985,-0.00640641
5299.4272,-0.00642404
5301.3555,-0.00645672
5303.2842,-0.00649615
5305.2124,-0.00653138
5307.1411,-0.00655569
5309.0693,-0.00657009
5310.9980,-0.00658101
5312.9263,-0.00659454
5314.8550,-0.00661179
5316.7832,-0.00662831
5318.7119,-0.00663707
5320.6401,-0.00663282
5322.5688,-0.00661495
5324.4971,-0.00658791
5326.4258,-0.00655893
5328.3540,-0.0065348
5330.2827,-0.00651924
5332.2109,-0.00651236
5334.1396,-0.006512
5336.0679,-0.00651561
5337.9966,-0.0065214
5339.9248,-0.00652862
5341.8535,-0.00653699
5343.7817,-0.00654616
5345.7104,-0.00655529
5347.6387,-0.00656288
5349.5674,-0.00656688
5351.4956,-0.00656536
5353.4243,-0.00655762
5355.3525,-0.00654525
5357.2813,-0.00653178
5359.2095,-0.0065211
5361.1382,-0.00651539
5363.0664,-0.0065142
5364.9951,-0.00651563
5366.9233,-0.00651874
5368.8521,-0.00652504
5370.7803,-0.00653753
5372.7090,-0.00655748
5374.6372,-0.00658155
5376.5659,-0.00660211
5378.4941,-0.00661166
5380.4229,-0.00660824
5382.3511,-0.00659718
5384.2798,-0.0065878
5386.2080,-0.00658743
5388.1367,-0.006597
5390.0649,-0.00661096
5391.9937,-0.00662147
5393.9219,-0.00662396
5395.8506,-0.00661998
5397.7788,-0.00661522
5399.7075,-0.00661476
5401.6357,-0.00661951
5403.5645,-0.0066262
5405.4927,-0.00663015
5407.4214,-0.00662838
5409.3496,-0.00662136
5411.2783,-0.00661241
5413.2065,-0.00660565
5415.1353,-0.00660403
5417.0635,-0.00660901
5418.9922,-0.00662112
5420.9204,-0.00663996
5422.8491,-0.00666311
5424.7773,-0.00668521
5426.7061,-0.0066992
5428.6343,-0.00670013
5430.5630,-0.00668927
5432.4912,-0.00667448
5434.4199,-0.00666554
5436.3481,-0.00666803
5438.2769,-0.00668038
5440.2051,-0.00669598
5442.1338,-0.00670839
5444.0620,-0.00671609
5445.9907,-0.00672287
5447.9189,-0.00673354
5449.8477,-0.00674875
5451.7759,-0.00676351
5453.7046,-0.00677054
5455.6328,-0.00676575
5457.5615,-0.00675189
5459.4897,-0.0067379
5461.4185,-0.00673379
5463.3467,-0.00674421
5465.2754,-0.00676538
5467.2036,-0.00678736
5469.1323,-0.00679958
5471.0605,-0.00679578
5472.9893,-0.00677593
5474.9175,-0.00674496
5476.8462,-0.00670964
5478.7744,-0.00667601
5480.7031,-0.00664875
5482.6313,-0.00663203
5484.5601,-0.00662956
5486.4883,-0.00664291
5488.4170,-0.006669
5490.3452,-0.00669945
5492.2739,-0.00672384
5494.2021,-0.00673519
5496.1309,-0.00673342
5498.0591,-0.00672385
5499.9878,-0.00671275
5501.9160,-0.00670359
5503.8447,-0.00669652
5505.7729,-0.00669049
5507.7017,-0.00668546
5509.6299,-0.00668248
5511.5586,-0.00668217
5513.4868,-0.00668425
5515.4155,-0.00668932
5517.3438,-0.00670127
5519.2725,-0.00672655
5521.2007,-0.00676902
5523.1294,-0.00682341
5525.0576,-0.00687363
5526.9863,-0.00689917
5528.9146,-0.00688674
5530.8433,-0.0068394
5532.7715,-0.0067765
5534.7002,-0.00672367
5536.6284,-0.00669904
5538.5571,-0.0067046
5540.4854,-0.00672774
5542.4141,-0.00675057
5544.3423,-0.00675975
5546.2710,-0.00675118
5548.1992,-0.00672859
5550.1279,-0.00669927
5552.0562,-0.00667034
5553.9849,-0.00664737
5555.9131,-0.00663439
5557.8418,-0.00663406
5559.7700,-0.00664721
5561.6987,-0.00667219
5563.6270,-0.00670487
5565.5557,-0.00673953
5567.4839,-0.00677048
5569.4126,-0.00679404
5571.3408,-0.00680988
5573.2695,-0.00682075
5575.1978,-0.0068302
5577.1265,-0.00683909
5579.0547,-0.0068435
5580.9834,-0.00683604
5582.9116,-0.0068107
5584.8403,-0.00676841
5586.7686,-0.00671897
5588.6973,-0.0066773
5590.6255,-0.00665612
5592.5542,-0.00665962
5594.4824,-0.00668239
5596.4111,-0.00671372
5598.3394,-0.00674358
5600.2681,-0.00676632
5602.1963,-0.00678032
5604.1250,-0.00678565
5606.0532,-0.00678263
5607.9819,-0.00677218
5609.9102,-0.00675668
5611.8389,-0.00673925
5613.7671,-0.00672173
5615.6958,-0.00670361
5617.6240,-0.00668385
5619.5527,-0.00666458
5621.4810,-0.00665303
5623.4097,-0.00665841
5625.3379,-0.00668489
5627.2666,-0.006726
5629.1948,-0.00676568
5631.1235,-0.00678697
5633.0518,-0.00678256
5634.9805,-0.00675949
5636.9087,-0.00673423
5638.8374,-0.00672172
5640.7656,-0.00672661
5642.6943,-0.00674297
5644.6226,-0.00676179
5646.5513,-0.00677922
5648.4795,-0.00679854
5650.4082,-0.00682487
5652.3364,-0.00685792
5654.2651,-0.00688994
5656.1934,-0.00691099
5658.1221,-0.00691724
5660.0503,-0.00691507
5661.9790,-0.00691723
5663.9072,-0.00693385
5665.8359,-0.006965
5667.7642,-0.0070001
5669.6929,-0.00702394
5671.6211,-0.00702463
5673.5498,-0.00699841
5675.4780,-0.00694943
5677.4067,-0.00688614
5679.3350,-0.00681747
5681.2637,-0.00675071
5683.1919,-0.00669136
5685.1206,-0.00664415
5687.0488,-0.00661415
5688.9775,-0.00660698
5690.9058,-0.00662731
5692.8345,-0.00667547
5694.7627,-0.00674404
5696.6914,-0.00681728
5698.6196,-0.00687564
5700.5483,-0.00690445
5702.4766,-0.00690166
5704.4053,-0.0068795
5706.3335,-0.00685773
5708.2622,-0.0068524
5710.1904,-0.00686718
5712.1191,-0.00689296
5714.0474,-0.00691557
5715.9761,-0.00692574
5717.9043,-0.00692401
5719.8330,-0.00691779
5721.7612,-0.00691342
5723.6899,-0.00690989
5725.6182,-0.00689927
5727.5469,-0.00687355
5729.4751,-0.00683273
5731.4038,-0.00678805
5733.3320,-0.0067575
5735.2607,-0.00675615
5737.1890,-0.00678753
5739.1177,-0.00684148
5741.0459,-0.00689999
5742.9746,-0.0069472
5744.9028,-0.00697761
5746.8315,-0.00699746
5748.7598,-0.00701884
5750.6885,-0.00705072
5752.6167,-0.00709258
5754.5454,-0.00713453
5756.4736,-0.00716358
5758.4023,-0.00717174
5760.3306,-0.00716094
5762.2593,-0.00714201
5764.1875,-0.00712845
5766.1162,-0.00712907
5768.0444,-0.00714357
5769.9731,-0.00716317
5771.9014,-0.00717563
5773.8301,-0.00717148
5775.7583,-0.00714845
5777.6870,-0.00711198
5779.6152,-0.00707214
5781.5439,-0.00703888
5783.4722,-0.00701802
5785.4009,-0.00700955
5787.3291,-0.00700857
5789.2578,-0.00700792
5791.1860,-0.00700111
5793.1147,-0.00698476
5795.0430,-0.0069599
5796.9717,-0.00693222
5798.8999,-0.0069106
5800.8286,-0.00690406
5802.7568,-0.00691758
5804.6855,-0.00694866
5806.6138,-0.00698686
5808.5425,-0.00701735
5810.4707,-0.00702724
5812.3994,-0.00701154
5814.3276,-0.00697557
5816.2563,-0.00693253
5818.1846,-0.00689786
5820.1133,-0.00688333
5822.0415,-0.00689308
5823.9702,-0.00692275
5825.8984,-0.00696114
5827.8271,-0.0069941
5829.7554,-0.00700997
5831.6841,-0.00700501
5833.6123,-0.00698608
5835.5410,-0.00696791
5837.4692,-0.00696533
5839.3979,-0.00698453
5841.3262,-0.00701935
5843.2549,-0.00705564
5845.1831,-0.00708084
5847.1118,-0.00709162
5849.0400,-0.00709371
5850.9688,-0.0070943
5852.8970,-0.00709413
5854.8257,-0.00708659
5856.7539,-0.00706542
5858.6826,-0.0070342
5860.6108,-0.0070088
5862.5396,-0.00700889
5864.4678,-0.00704403
5866.3965,-0.00710494
5868.3247,-0.00716717
5870.2534,-0.00720506
5872.1816,-0.00720598
5874.1104,-0.00717519
5876.0386,-0.00712918
5877.9673,-0.00708396
5879.8955,-0.00704745
5881.8242,-0.0070203
5883.7524,-0.00700201
5885.6812,-0.00699536
5887.6094,-0.0070052
5889.5381,-0.00703328
5891.4663,-0.00707461
5893.3950,-0.00711912
5895.3232,-0.00715718
5897.2520,-0.0071843
5899.1802,-0.00720128
5901.1089,-0.00721065
5903.0371,-0.00721314
5904.9658,-0.00720757
5906.8940,-0.00719357
5908.8228,-0.00717381
5910.7510,-0.00715318
5912.6797,-0.00713547
5914.6079,-0.00712115
5916.5366,-0.00710832
5918.4648,-0.00709623
5920.3936,-0.00708758
5922.3218,-0.007087
5924.2505,-0.0070968
5926.1787,-0.00711358
5928.1074,-0.00712893
5930.0356,-0.00713425
5931.9644,-0.00712612
5933.8926,-0.00710865
5935.8213,-0.00709146
5937.7495,-0.00708486
5939.6782,-0.0070949
5941.6064,-0.00712038
5943.5352,-0.00715288
5945.4634,-0.00718008
5947.3921,-0.00719138
5949.3203,-0.00718396
5951.2490,-0.00716547
5953.1772,-0.00715067
5955.1060,-0.00715269
5957.0342,-0.00717412
5958.9629,-0.00720416
5960.8911,-0.00722494
5962.8198,-0.00722335
5964.7480,-0.00720035
5966.6768,-0.00717091
5968.6050,-0.00715446
5970.5337,-0.00716231
5972.4619,-0.00719064
5974.3906,-0.0072235
5976.3188,-0.00724336
5978.2476,-0.0072417
5980.1758,-0.00722301
5982.1045,-0.00720002
5984.0327,-0.00718408
5985.9614,-0.00717762
5987.8896,-0.00717374
5989.8184,-0.00716299
5991.7466,-0.00714247
5993.6753,-0.00712019
5995.6035,-0.00711102
5997.5322,-0.0071264
5999.4604,-0.00716514
6001.3892,-0.00721241

##### Extended Information
[Rg]
,test
Rg,test
,test
,test
,NAIST

[f[^]
,2026/02/12 12:36

f[^^Cv,uf[^
,Wavenumber [cm-1]
c,Abs
X^[g,998.946 cm-1
Gh,6001.39 cm-1
f[^u,1.92847 cm-1
f[^,2595    

[]
@,FT/IR-4600typeA
VA,E137161786

,2026/02/12 12:36

,W
o,TGS
Z,8
,8 cm-1
[tBO,On
A|_C[[V,Cosine
QC,Auto (1)
Ap[`[,Auto (7.1 mm)
XLXs[h,Auto (2 mm/sec)
tB^,Auto (30000 Hz)

