TITLE,test
DATA TYPE,INFRARED SPECTRUM
ORIGIN,JASCO
OWNER,test
DATE,26/02/12
TIME,12:28:58
SPECTROMETER/DATA SYSTEM,
LOCALE,1041
RESOLUTION,
DELTAX,1.92847
XUNITS,1/CM
YUNITS,INTENSITY
FIRSTX,  998.9459
LASTX, 6001.3891
NPOINTS,    2595
FIRSTY,    37.79730
MAXY,    64.17134
MINY,     2.67769
XYDATA
998.9459,37.7973
1000.8743,37.8586
1002.8028,37.8848
1004.7313,37.8732
1006.6597,37.8219
1008.5882,37.7314
1010.5167,37.6061
1012.4451,37.4543
1014.3736,37.2865
1016.3021,37.1135
1018.2305,36.9436
1020.1590,36.7813
1022.0875,36.6275
1024.0160,36.4804
1025.9445,36.3371
1027.8729,36.1949
1029.8014,36.0512
1031.7299,35.9042
1033.6583,35.752
1035.5868,35.5934
1037.5153,35.428
1039.4437,35.2567
1041.3722,35.0814
1043.3007,34.904
1045.2291,34.726
1047.1576,34.5472
1049.0861,34.367
1051.0145,34.1839
1052.9430,33.9975
1054.8715,33.8084
1056.7999,33.6187
1058.7284,33.4313
1060.6569,33.2497
1062.5853,33.0774
1064.5138,32.917
1066.4423,32.7704
1068.3707,32.6382
1070.2992,32.521
1072.2277,32.4189
1074.1561,32.3333
1076.0846,32.2661
1078.0131,32.2198
1079.9415,32.1965
1081.8700,32.1972
1083.7985,32.2217
1085.7269,32.2693
1087.6554,32.3389
1089.5839,32.4305
1091.5123,32.5441
1093.4408,32.6803
1095.3693,32.8392
1097.2977,33.0204
1099.2262,33.2234
1101.1547,33.4476
1103.0831,33.692
1105.0116,33.956
1106.9401,34.2387
1108.8685,34.5393
1110.7970,34.8566
1112.7255,35.1889
1114.6539,35.5343
1116.5824,35.8909
1118.5109,36.2567
1120.4393,36.6296
1122.3678,37.0073
1124.2963,37.3875
1126.2247,37.7674
1128.1532,38.1451
1130.0817,38.5189
1132.0101,38.8883
1133.9386,39.2535
1135.8671,39.6147
1137.7955,39.9717
1139.7240,40.3238
1141.6525,40.6706
1143.5809,41.0125
1145.5094,41.3516
1147.4379,41.6907
1149.3663,42.0326
1151.2948,42.3782
1153.2233,42.7263
1155.1517,43.074
1157.0802,43.4184
1159.0087,43.758
1160.9371,44.0926
1162.8656,44.4225
1164.7941,44.7476
1166.7225,45.0668
1168.6510,45.3793
1170.5795,45.6851
1172.5079,45.9865
1174.4364,46.2878
1176.3649,46.5933
1178.2933,46.9068
1180.2218,47.2295
1182.1503,47.5602
1184.0787,47.8951
1186.0072,48.2293
1187.9357,48.5571
1189.8641,48.8742
1191.7926,49.1788
1193.7211,49.4724
1195.6495,49.7589
1197.5780,50.043
1199.5065,50.3272
1201.4349,50.6109
1203.3634,50.891
1205.2919,51.1648
1207.2203,51.4325
1209.1488,51.6982
1211.0773,51.9677
1213.0057,52.2454
1214.9342,52.5314
1216.8627,52.8223
1218.7911,53.1141
1220.7196,53.4054
1222.6481,53.6984
1224.5765,53.9967
1226.5050,54.3029
1228.4335,54.6157
1230.3619,54.9305
1232.2904,55.2403
1234.2189,55.5381
1236.1473,55.8185
1238.0758,56.0795
1240.0043,56.3225
1241.9327,56.551
1243.8612,56.7657
1245.7897,56.9579
1247.7181,57.1067
1249.6466,57.1839
1251.5751,57.1683
1253.5035,57.062
1255.4320,56.9014
1257.3605,56.7509
1259.2889,56.6827
1261.2174,56.7495
1263.1459,56.9658
1265.0743,57.307
1267.0028,57.7241
1268.9313,58.1647
1270.8597,58.5884
1272.7882,58.9687
1274.7167,59.2882
1276.6451,59.533
1278.5736,59.6939
1280.5021,59.7721
1282.4305,59.7827
1284.3590,59.7534
1286.2875,59.7148
1288.2159,59.6907
1290.1444,59.6909
1292.0729,59.7111
1294.0013,59.7382
1295.9298,59.7577
1297.8583,59.7599
1299.7867,59.7416
1301.7152,59.7009
1303.6437,59.6296
1305.5721,59.5094
1307.5006,59.3201
1309.4291,59.0562
1311.3575,58.7436
1313.2860,58.4393
1315.2145,58.2127
1317.1429,58.1176
1319.0714,58.1723
1320.9999,58.3566
1322.9283,58.618
1324.8568,58.876
1326.7853,59.024
1328.7137,58.9466
1330.6422,58.5651
1332.5707,57.8982
1334.4991,57.0945
1336.4276,56.3964
1338.3561,56.0358
1340.2845,56.1198
1342.2130,56.5811
1344.1415,57.2235
1346.0699,57.8266
1347.9984,58.2319
1349.9269,58.363
1351.8553,58.1952
1353.7838,57.7324
1355.7123,57.0267
1357.6407,56.2114
1359.5692,55.4885
1361.4977,55.0417
1363.4261,54.9276
1365.3546,55.0344
1367.2831,55.1581
1369.2115,55.1486
1371.1400,55.0145
1373.0685,54.9003
1374.9969,54.9579
1376.9254,55.2132
1378.8539,55.534
1380.7823,55.7135
1382.7108,55.5951
1384.6393,55.1425
1386.5677,54.4241
1388.4962,53.5508
1390.4247,52.6357
1392.3531,51.7979
1394.2816,51.1803
1396.2101,50.9353
1398.1385,51.1716
1400.0670,51.897
1401.9955,52.9968
1403.9240,54.2549
1405.8524,55.3939
1407.7809,56.1184
1409.7094,56.1738
1411.6378,55.4399
1413.5663,54.038
1415.4948,52.3736
1417.4232,51.0353
1419.3517,50.5477
1421.2802,51.0956
1423.2086,52.3911
1425.1371,53.7983
1427.0656,54.6636
1428.9940,54.6644
1430.9225,53.9655
1432.8510,53.0978
1434.7794,52.6476
1436.7079,52.9532
1438.6364,53.9703
1440.5648,55.3411
1442.4933,56.5752
1444.4218,57.2198
1446.3502,56.9604
1448.2787,55.6736
1450.2072,53.4798
1452.1356,50.7928
1454.0641,48.2905
1455.9926,46.732
1457.9210,46.6391
1459.8495,47.9922
1461.7780,50.1473
1463.7064,52.0913
1465.6349,52.9453
1467.5634,52.4435
1469.4918,51.0913
1471.4203,49.883
1473.3488,49.7352
1475.2772,50.9707
1477.2057,53.1541
1479.1342,55.3548
1481.0626,56.6517
1482.9911,56.5784
1484.9196,55.2851
1486.8480,53.3868
1488.7765,51.6315
1490.7050,50.5648
1492.6334,50.3181
1494.5619,50.5732
1496.4904,50.7095
1498.4188,50.0973
1500.3473,48.438
1502.2758,45.9838
1504.2042,43.4774
1506.1327,41.7863
1508.0612,41.4099
1509.9896,42.163
1511.9181,43.2667
1513.8466,43.8179
1515.7750,43.3494
1517.7035,42.1156
1519.6320,40.9253
1521.5604,40.6403
1523.4889,41.6633
1525.4174,43.7126
1527.3458,45.9706
1529.2743,47.4744
1531.2028,47.5263
1533.1312,45.963
1535.0597,43.227
1536.9882,40.2478
1538.9166,38.1531
1540.8451,37.8543
1542.7736,39.6259
1544.7020,42.8776
1546.6305,46.3015
1548.5590,48.4107
1550.4874,48.2493
1552.4159,45.9011
1554.3444,42.4936
1556.2728,39.6624
1558.2013,38.755
1560.1298,40.2055
1562.0582,43.4014
1563.9867,47.0803
1565.9152,49.9975
1567.8436,51.4964
1569.7721,51.7104
1571.7006,51.3586
1573.6290,51.3064
1575.5575,52.1407
1577.4860,53.9518
1579.4144,56.3761
1581.3429,58.8256
1583.2714,60.7705
1585.1998,61.9408
1587.1283,62.3779
1589.0568,62.3394
1590.9852,62.1308
1592.9137,61.9609
1594.8422,61.89
1596.7706,61.8733
1598.6991,61.8449
1600.6276,61.7697
1602.5560,61.6307
1604.4845,61.3801
1606.4130,60.9121
1608.3414,60.0973
1610.2699,58.8672
1612.1984,57.2949
1614.1268,55.6191
1616.0553,54.1893
1617.9838,53.3473
1619.9122,53.2863
1621.8407,53.9386
1623.7692,54.95
1625.6976,55.7831
1627.6261,55.9456
1629.5546,55.2524
1631.4830,53.9714
1633.4115,52.7195
1635.3400,52.1152
1637.2684,52.3662
1639.1969,53.061
1641.1254,53.3423
1643.0538,52.405
1644.9823,50.0288
1646.9108,46.8106
1648.8392,43.9333
1650.7677,42.5978
1652.6962,43.4415
1654.6246,46.2544
1656.5531,50.1069
1658.4816,53.7732
1660.4100,56.2186
1662.3385,56.9487
1664.2670,56.1187
1666.1954,54.4028
1668.1239,52.6758
1670.0524,51.6181
1671.9808,51.4051
1673.9093,51.6513
1675.8378,51.6817
1677.7662,51.005
1679.6947,49.6977
1681.6232,48.4152
1683.5516,47.9752
1685.4801,48.7636
1687.4086,50.3737
1689.3370,51.757
1691.2655,51.8273
1693.1940,50.1419
1695.1224,47.2291
1697.0509,44.3568
1698.9794,42.886
1700.9078,43.5834
1702.8363,46.257
1704.7648,49.8684
1706.6932,53.0306
1708.6217,54.6353
1710.5502,54.3344
1712.4786,52.6753
1714.4071,50.8338
1716.3356,50.0523
1718.2640,51.0283
1720.1925,53.5501
1722.1210,56.5795
1724.0494,58.7609
1725.9779,59.1037
1727.9064,57.4752
1729.8348,54.6419
1731.7633,51.8488
1733.6918,50.1814
1735.6202,50.0654
1737.5487,51.1555
1739.4772,52.6336
1741.4056,53.7079
1743.3341,54.0163
1745.2626,53.7298
1747.1910,53.3464
1749.1195,53.3482
1751.0480,53.9423
1752.9764,55.0148
1754.9049,56.2663
1756.8334,57.3887
1758.7618,58.1604
1760.6903,58.4417
1762.6188,58.1466
1764.5472,57.2727
1766.4757,55.9828
1768.4042,54.6479
1770.3326,53.7625
1772.2611,53.7389
1774.1896,54.6962
1776.1180,56.3792
1778.0465,58.2663
1779.9750,59.7973
1781.9034,60.5907
1783.8319,60.5467
1785.7604,59.8215
1787.6888,58.7273
1789.6173,57.6232
1791.5458,56.8266
1793.4742,56.547
1795.4027,56.8429
1797.3312,57.6136
1799.2596,58.6422
1801.1881,59.6806
1803.1166,60.5403
1805.0450,61.1504
1806.9735,61.5589
1808.9020,61.8836
1810.8304,62.2372
1812.7589,62.6554
1814.6874,63.0552
1816.6158,63.2476
1818.5443,63.0149
1820.4728,62.2344
1822.4012,60.9926
1824.3297,59.6167
1826.2582,58.575
1828.1866,58.2686
1830.1151,58.8114
1832.0436,59.9294
1833.9720,61.0604
1835.9005,61.6265
1837.8290,61.3405
1839.7574,60.3686
1841.6859,59.2462
1843.6144,58.5899
1845.5428,58.7763
1847.4713,59.7748
1849.3998,61.2174
1851.3282,62.6307
1853.2567,63.663
1855.1852,64.1713
1857.1136,64.161
1859.0421,63.682
1860.9706,62.7945
1862.8990,61.6252
1864.8275,60.4314
1866.7560,59.5718
1868.6844,59.3628
1870.6129,59.9054
1872.5414,61.0107
1874.4698,62.2833
1876.3983,63.3111
1878.3268,63.8413
1880.2552,63.844
1882.1837,63.4588
1884.1122,62.8889
1886.0406,62.3199
1887.9691,61.8913
1889.8976,61.6969
1891.8260,61.7776
1893.7545,62.1018
1895.6830,62.5585
1897.6115,62.9902
1899.5399,63.2593
1901.4684,63.3102
1903.3969,63.1825
1905.3253,62.9661
1907.2538,62.7296
1909.1823,62.4754
1911.1107,62.1547
1913.0392,61.7301
1914.9677,61.2394
1916.8961,60.8069
1918.8246,60.5913
1920.7531,60.701
1922.6815,61.133
1924.6100,61.7736
1926.5385,62.4525
1928.4669,63.0115
1930.3954,63.3452
1932.3239,63.4074
1934.2523,63.2016
1936.1808,62.7807
1938.1093,62.2535
1940.0377,61.7746
1941.9662,61.4993
1943.8947,61.5171
1945.8231,61.8055
1947.7516,62.2416
1949.6801,62.6679
1951.6085,62.9688
1953.5370,63.1078
1955.4655,63.1098
1957.3939,63.0147
1959.3224,62.8483
1961.2509,62.6291
1963.1793,62.3947
1965.1078,62.2103
1967.0363,62.1441
1968.9647,62.226
1970.8932,62.4256
1972.8217,62.6683
1974.7501,62.8765
1976.6786,63.0025
1978.6071,63.0308
1980.5355,62.9592
1982.4640,62.7841
1984.3925,62.5097
1986.3209,62.172
1988.2494,61.85
1990.1779,61.6418
1992.1063,61.6173
1994.0348,61.7767
1995.9633,62.0486
1997.8917,62.3285
1999.8202,62.533
2001.7487,62.6323
2003.6771,62.6441
2005.6056,62.6008
2007.5341,62.5207
2009.4625,62.4036
2011.3910,62.2499
2013.3195,62.0807
2015.2479,61.939
2017.1764,61.8689
2019.1049,61.8892
2021.0333,61.9813
2022.9618,62.1009
2024.8903,62.2031
2026.8187,62.2621
2028.7472,62.2746
2030.6757,62.2498
2032.6041,62.1967
2034.5326,62.1212
2036.4611,62.0309
2038.3895,61.9411
2040.3180,61.8718
2042.2465,61.8389
2044.1749,61.8449
2046.1034,61.8771
2048.0320,61.9152
2049.9604,61.9405
2051.8889,61.9415
2053.8174,61.9135
2055.7458,61.8562
2057.6743,61.7739
2059.6028,61.678
2061.5313,61.5872
2063.4597,61.523
2065.3882,61.499
2067.3167,61.5138
2069.2451,61.5508
2071.1736,61.5872
2073.1021,61.606
2075.0305,61.6023
2076.9590,61.5809
2078.8875,61.5487
2080.8159,61.5089
2082.7444,61.461
2084.6729,61.4052
2086.6013,61.3471
2088.5298,61.2962
2090.4583,61.2602
2092.3867,61.2405
2094.3152,61.2305
2096.2437,61.2201
2098.1721,61.2017
2100.1006,61.1733
2102.0291,61.1371
2103.9575,61.0962
2105.8860,61.0524
2107.8145,61.0054
2109.7429,60.9559
2111.6714,60.9061
2113.5999,60.8598
2115.5283,60.8202
2117.4568,60.788
2119.3853,60.7612
2121.3137,60.7364
2123.2422,60.7101
2125.1707,60.6801
2127.0991,60.6452
2129.0276,60.6059
2130.9561,60.5639
2132.8845,60.5222
2134.8130,60.4843
2136.7415,60.452
2138.6699,60.4245
2140.5984,60.3982
2142.5269,60.3678
2144.4553,60.3297
2146.3838,60.2829
2148.3123,60.229
2150.2407,60.1713
2152.1692,60.1121
2154.0977,60.0525
2156.0261,59.9924
2157.9546,59.9319
2159.8831,59.8718
2161.8115,59.8133
2163.7400,59.7573
2165.6685,59.7039
2167.5969,59.6521
2169.5254,59.6008
2171.4539,59.5492
2173.3823,59.497
2175.3108,59.4446
2177.2393,59.3924
2179.1677,59.3407
2181.0962,59.2898
2183.0247,59.24
2184.9531,59.1911
2186.8816,59.1427
2188.8101,59.0943
2190.7385,59.0454
2192.6670,58.9954
2194.5955,58.9442
2196.5239,58.8917
2198.4524,58.8377
2200.3809,58.7824
2202.3093,58.726
2204.2378,58.6684
2206.1663,58.61
2208.0947,58.5509
2210.0232,58.4915
2211.9517,58.4318
2213.8801,58.3718
2215.8086,58.3111
2217.7371,58.2492
2219.6655,58.1855
2221.5940,58.1197
2223.5225,58.0517
2225.4509,57.9815
2227.3794,57.9092
2229.3079,57.8351
2231.2363,57.7594
2233.1648,57.6823
2235.0933,57.6033
2237.0217,57.5219
2238.9502,57.4369
2240.8787,57.3474
2242.8071,57.2523
2244.7356,57.1501
2246.6641,57.0398
2248.5925,56.9204
2250.5210,56.7918
2252.4495,56.6545
2254.3779,56.5097
2256.3064,56.3587
2258.2349,56.2038
2260.1633,56.048
2262.0918,55.8955
2264.0203,55.75
2265.9487,55.6148
2267.8772,55.4933
2269.8057,55.3903
2271.7341,55.312
2273.6626,55.2629
2275.5911,55.2395
2277.5195,55.2257
2279.4480,55.1926
2281.3765,55.1057
2283.3049,54.9353
2285.2334,54.6652
2287.1619,54.2963
2289.0903,53.8431
2291.0188,53.3261
2292.9473,52.7619
2294.8757,52.154
2296.8042,51.4874
2298.7327,50.7308
2300.6611,49.8476
2302.5896,48.8103
2304.5181,47.6119
2306.4465,46.265
2308.3750,44.7919
2310.3035,43.2124
2312.2319,41.5416
2314.1604,39.7956
2316.0889,38.002
2318.0173,36.2022
2319.9458,34.4474
2321.8743,32.7908
2323.8027,31.2814
2325.7312,29.9582
2327.6597,28.839
2329.5881,27.9089
2331.5166,27.1264
2333.4451,26.4584
2335.3735,25.9349
2337.3020,25.6778
2339.2305,25.8593
2341.1589,26.5836
2343.0874,27.7523
2345.0159,29.0101
2346.9443,29.8391
2348.8728,29.7752
2350.8013,28.6348
2352.7297,26.6184
2354.6582,24.2278
2356.5867,22.0484
2358.5151,20.5244
2360.4436,19.8455
2362.3721,19.9785
2364.3005,20.7907
2366.2290,22.1678
2368.1575,24.0617
2370.0859,26.4637
2372.0144,29.344
2373.9429,32.6047
2375.8713,36.0696
2377.7998,39.5077
2379.7283,42.6757
2381.6567,45.3661
2383.5852,47.4485
2385.5137,48.8931
2387.4421,49.7676
2389.3706,50.2059
2391.2991,50.3607
2393.2275,50.3622
2395.1560,50.2959
2397.0845,50.2056
2399.0129,50.1077
2400.9414,50.007
2402.8699,49.9054
2404.7983,49.8037
2406.7268,49.7018
2408.6553,49.5992
2410.5837,49.4959
2412.5122,49.3928
2414.4407,49.2902
2416.3691,49.1879
2418.2976,49.085
2420.2261,48.9812
2422.1545,48.8768
2424.0830,48.7725
2426.0115,48.6687
2427.9399,48.5652
2429.8684,48.4619
2431.7969,48.3586
2433.7253,48.2555
2435.6538,48.1526
2437.5823,48.0497
2439.5107,47.9467
2441.4392,47.8437
2443.3677,47.7409
2445.2961,47.6384
2447.2246,47.536
2449.1531,47.4337
2451.0815,47.3313
2453.0100,47.2291
2454.9385,47.1274
2456.8669,47.026
2458.7954,46.9249
2460.7239,46.8238
2462.6523,46.7225
2464.5808,46.6212
2466.5093,46.52
2468.4377,46.4188
2470.3662,46.318
2472.2947,46.2175
2474.2231,46.1175
2476.1516,46.0179
2478.0801,45.9184
2480.0085,45.8188
2481.9370,45.7188
2483.8655,45.6187
2485.7939,45.5187
2487.7224,45.4191
2489.6509,45.3199
2491.5793,45.2209
2493.5078,45.1218
2495.4363,45.0224
2497.3647,44.9226
2499.2932,44.8226
2501.2217,44.7229
2503.1501,44.6237
2505.0786,44.5252
2507.0071,44.427
2508.9355,44.3289
2510.8640,44.2303
2512.7925,44.1313
2514.7209,44.0322
2516.6494,43.9334
2518.5779,43.8353
2520.5063,43.7379
2522.4348,43.6411
2524.3633,43.5444
2526.2917,43.4478
2528.2202,43.3511
2530.1487,43.2545
2532.0771,43.1581
2534.0056,43.062
2535.9341,42.9664
2537.8625,42.8712
2539.7910,42.7763
2541.7195,42.6815
2543.6479,42.5869
2545.5764,42.4924
2547.5049,42.3981
2549.4333,42.3042
2551.3618,42.2105
2553.2903,42.117
2555.2188,42.0235
2557.1472,41.93
2559.0757,41.8364
2561.0042,41.743
2562.9326,41.6497
2564.8611,41.5568
2566.7896,41.4643
2568.7180,41.3721
2570.6465,41.2801
2572.5750,41.1882
2574.5034,41.0963
2576.4319,41.0046
2578.3604,40.9131
2580.2888,40.8218
2582.2173,40.7308
2584.1458,40.64
2586.0742,40.5496
2588.0027,40.4593
2589.9312,40.3693
2591.8596,40.2795
2593.7881,40.1898
2595.7166,40.1004
2597.6450,40.0113
2599.5735,39.9226
2601.5020,39.8341
2603.4304,39.7459
2605.3589,39.658
2607.2874,39.5705
2609.2158,39.4834
2611.1443,39.3968
2613.0728,39.3106
2615.0012,39.2246
2616.9297,39.1387
2618.8582,39.0528
2620.7866,38.9671
2622.7151,38.8818
2624.6436,38.797
2626.5720,38.7125
2628.5005,38.6282
2630.4290,38.5439
2632.3574,38.4598
2634.2859,38.3761
2636.2144,38.293
2638.1428,38.2106
2640.0713,38.1287
2641.9998,38.0474
2643.9282,37.9662
2645.8567,37.8854
2647.7852,37.8049
2649.7136,37.7247
2651.6421,37.6445
2653.5706,37.564
2655.4990,37.4833
2657.4275,37.4025
2659.3560,37.322
2661.2844,37.2423
2663.2129,37.1635
2665.1414,37.0852
2667.0698,37.0068
2668.9983,36.9279
2670.9268,36.8484
2672.8552,36.769
2674.7837,36.6906
2676.7122,36.6138
2678.6406,36.5389
2680.5691,36.4653
2682.4976,36.3921
2684.4260,36.3187
2686.3545,36.2447
2688.2830,36.1704
2690.2114,36.0962
2692.1399,36.0224
2694.0684,35.9493
2695.9968,35.8766
2697.9253,35.8041
2699.8538,35.7315
2701.7822,35.6588
2703.7107,35.586
2705.6392,35.5136
2707.5676,35.4417
2709.4961,35.3701
2711.4246,35.2985
2713.3530,35.2262
2715.2815,35.1529
2717.2100,35.0792
2719.1384,35.0058
2721.0669,34.934
2722.9954,34.8641
2724.9238,34.796
2726.8523,34.7289
2728.7808,34.6619
2730.7092,34.5949
2732.6377,34.5278
2734.5662,34.4609
2736.4946,34.394
2738.4231,34.3265
2740.3516,34.2581
2742.2800,34.1889
2744.2085,34.1198
2746.1370,34.0517
2748.0654,33.9852
2749.9939,33.9201
2751.9224,33.8554
2753.8508,33.7903
2755.7793,33.7246
2757.7078,33.6588
2759.6362,33.5933
2761.5647,33.528
2763.4932,33.4626
2765.4216,33.3962
2767.3501,33.3288
2769.2786,33.2608
2771.2070,33.1935
2773.1355,33.1277
2775.0640,33.0634
2776.9924,32.9998
2778.9209,32.9358
2780.8494,32.8709
2782.7778,32.8049
2784.7063,32.7383
2786.6348,32.672
2788.5632,32.6062
2790.4917,32.5413
2792.4202,32.4774
2794.3486,32.4146
2796.2771,32.3529
2798.2056,32.2921
2800.1340,32.2314
2802.0625,32.1705
2803.9910,32.1089
2805.9194,32.0469
2807.8479,31.9851
2809.7764,31.9237
2811.7048,31.8626
2813.6333,31.8012
2815.5618,31.7392
2817.4902,31.6764
2819.4187,31.6134
2821.3472,31.5505
2823.2756,31.4872
2825.2041,31.4224
2827.1326,31.3548
2829.0610,31.2837
2830.9895,31.2091
2832.9180,31.1313
2834.8464,31.0485
2836.7749,30.9573
2838.7034,30.8528
2840.6318,30.7322
2842.5603,30.5982
2844.4888,30.4598
2846.4172,30.3305
2848.3457,30.2236
2850.2742,30.1475
2852.2026,30.1025
2854.1311,30.0823
2856.0596,30.0768
2857.9880,30.0757
2859.9165,30.0713
2861.8450,30.0587
2863.7734,30.0364
2865.7019,30.0049
2867.6304,29.9669
2869.5588,29.9257
2871.4873,29.8843
2873.4158,29.8441
2875.3442,29.8046
2877.2727,29.7635
2879.2012,29.7187
2881.1296,29.6684
2883.0581,29.612
2884.9866,29.5499
2886.9150,29.4828
2888.8435,29.4115
2890.7720,29.3368
2892.7004,29.26
2894.6289,29.182
2896.5574,29.1034
2898.4858,29.0241
2900.4143,28.9426
2902.3428,28.8559
2904.2712,28.7605
2906.1997,28.653
2908.1282,28.5323
2910.0566,28.4009
2911.9851,28.2652
2913.9136,28.1348
2915.8420,28.0195
2917.7705,27.9268
2919.6990,27.8603
2921.6274,27.8195
2923.5559,27.8014
2925.4844,27.8014
2927.4128,27.8152
2929.3413,27.8383
2931.2698,27.8664
2933.1982,27.8954
2935.1267,27.9214
2937.0552,27.9415
2938.9836,27.953
2940.9121,27.954
2942.8406,27.9421
2944.7690,27.9155
2946.6975,27.8735
2948.6260,27.8167
2950.5544,27.7478
2952.4829,27.6711
2954.4114,27.592
2956.3398,27.5165
2958.2683,27.4504
2960.1968,27.3989
2962.1252,27.3657
2964.0537,27.3518
2965.9822,27.3547
2967.9106,27.3689
2969.8391,27.3876
2971.7676,27.4045
2973.6960,27.4162
2975.6245,27.4215
2977.5530,27.4209
2979.4814,27.4149
2981.4099,27.4029
2983.3384,27.3838
2985.2668,27.3568
2987.1953,27.323
2989.1238,27.2848
2991.0522,27.2454
2992.9807,27.2071
2994.9092,27.1706
2996.8376,27.1349
2998.7661,27.0973
3000.6946,27.0543
3002.6230,27.0026
3004.5515,26.9407
3006.4800,26.8698
3008.4084,26.7949
3010.3369,26.7238
3012.2654,26.6645
3014.1938,26.6224
3016.1223,26.5968
3018.0508,26.5807
3019.9792,26.5628
3021.9077,26.5317
3023.8362,26.481
3025.7646,26.4125
3027.6931,26.3356
3029.6216,26.2636
3031.5500,26.2078
3033.4785,26.1722
3035.4070,26.1527
3037.3354,26.1392
3039.2639,26.1207
3041.1924,26.09
3043.1208,26.0454
3045.0493,25.9906
3046.9778,25.9311
3048.9063,25.8723
3050.8347,25.8167
3052.7632,25.7639
3054.6917,25.7111
3056.6201,25.6552
3058.5486,25.5948
3060.4771,25.5325
3062.4055,25.4744
3064.3340,25.4267
3066.2625,25.3921
3068.1909,25.3664
3070.1194,25.3398
3072.0479,25.3019
3073.9763,25.2481
3075.9048,25.1822
3077.8333,25.1144
3079.7617,25.0561
3081.6902,25.0131
3083.6187,24.9827
3085.5471,24.9559
3087.4756,24.9221
3089.4041,24.8738
3091.3325,24.8102
3093.2610,24.7362
3095.1895,24.6604
3097.1179,24.592
3099.0464,24.5368
3100.9749,24.4959
3102.9033,24.4647
3104.8318,24.435
3106.7603,24.3979
3108.6887,24.3473
3110.6172,24.2827
3112.5457,24.2089
3114.4741,24.1342
3116.4026,24.067
3118.3311,24.013
3120.2595,23.9733
3122.1880,23.9446
3124.1165,23.9209
3126.0449,23.8963
3127.9734,23.8668
3129.9019,23.8322
3131.8303,23.7948
3133.7588,23.7581
3135.6873,23.7242
3137.6157,23.6925
3139.5442,23.6603
3141.4727,23.6241
3143.4011,23.5817
3145.3296,23.5335
3147.2581,23.4821
3149.1865,23.4309
3151.1150,23.3825
3153.0435,23.3376
3154.9719,23.2947
3156.9004,23.2515
3158.8289,23.2066
3160.7573,23.1594
3162.6858,23.1105
3164.6143,23.0605
3166.5427,23.0089
3168.4712,22.9544
3170.3997,22.8961
3172.3281,22.8339
3174.2566,22.7698
3176.1851,22.7072
3178.1135,22.6496
3180.0420,22.5996
3181.9705,22.5575
3183.8989,22.5208
3185.8274,22.4848
3187.7559,22.4442
3189.6843,22.3951
3191.6128,22.3375
3193.5413,22.2751
3195.4697,22.2142
3197.3982,22.1602
3199.3267,22.1147
3201.2551,22.0741
3203.1836,22.0319
3205.1121,21.982
3207.0405,21.9224
3208.9690,21.8556
3210.8975,21.7876
3212.8259,21.7252
3214.7544,21.6727
3216.6829,21.6308
3218.6113,21.5964
3220.5398,21.564
3222.4683,21.5278
3224.3967,21.4846
3226.3252,21.4348
3228.2537,21.3823
3230.1821,21.3318
3232.1106,21.2857
3234.0391,21.2425
3235.9675,21.1982
3237.8960,21.1495
3239.8245,21.0967
3241.7529,21.0435
3243.6814,20.9941
3245.6099,20.9505
3247.5383,20.9104
3249.4668,20.8694
3251.3953,20.8247
3253.3237,20.7769
3255.2522,20.7298
3257.1807,20.6875
3259.1091,20.6511
3261.0376,20.6172
3262.9661,20.5797
3264.8945,20.5327
3266.8230,20.4739
3268.7515,20.4057
3270.6799,20.335
3272.6084,20.2704
3274.5369,20.2185
3276.4653,20.1814
3278.3938,20.1554
3280.3223,20.1325
3282.2507,20.1038
3284.1792,20.0635
3286.1077,20.0115
3288.0361,19.9531
3289.9646,19.8961
3291.8931,19.8469
3293.8215,19.8075
3295.7500,19.7748
3297.6785,19.7426
3299.6069,19.7042
3301.5354,19.6558
3303.4639,19.5982
3305.3923,19.5366
3307.3208,19.4784
3309.2493,19.43
3311.1777,19.3935
3313.1062,19.3657
3315.0347,19.3398
3316.9631,19.3088
3318.8916,19.2694
3320.8201,19.2226
3322.7485,19.1725
3324.6770,19.1223
3326.6055,19.0729
3328.5339,19.0224
3330.4624,18.9688
3332.3909,18.9128
3334.3193,18.858
3336.2478,18.8091
3338.1763,18.7688
3340.1047,18.7357
3342.0332,18.7048
3343.9617,18.6703
3345.8901,18.6285
3347.8186,18.579
3349.7471,18.5238
3351.6755,18.4655
3353.6040,18.4049
3355.5325,18.3418
3357.4609,18.2756
3359.3894,18.2079
3361.3179,18.1428
3363.2463,18.0858
3365.1748,18.0412
3367.1033,18.01
3369.0317,17.9883
3370.9602,17.969
3372.8887,17.9447
3374.8171,17.9103
3376.7456,17.8646
3378.6741,17.8103
3380.6025,17.751
3382.5310,17.6896
3384.4595,17.6264
3386.3879,17.5603
3388.3164,17.4909
3390.2449,17.42
3392.1733,17.3526
3394.1018,17.2941
3396.0303,17.248
3397.9587,17.2141
3399.8872,17.1885
3401.8157,17.1664
3403.7441,17.1439
3405.6726,17.1187
3407.6011,17.0883
3409.5295,17.0488
3411.4580,16.9957
3413.3865,16.9264
3415.3149,16.8446
3417.2434,16.7603
3419.1719,16.6863
3421.1003,16.6317
3423.0288,16.5969
3424.9573,16.574
3426.8857,16.5519
3428.8142,16.5225
3430.7427,16.4836
3432.6711,16.436
3434.5996,16.379
3436.5281,16.3083
3438.4565,16.2204
3440.3850,16.1186
3442.3135,16.0176
3444.2419,15.9387
3446.1704,15.8993
3448.0989,15.902
3450.0273,15.9315
3451.9558,15.9617
3453.8843,15.969
3455.8127,15.9426
3457.7412,15.8882
3459.6697,15.8221
3461.5981,15.7616
3463.5266,15.7178
3465.4551,15.6921
3467.3835,15.6774
3469.3120,15.6622
3471.2405,15.6352
3473.1689,15.5892
3475.0974,15.524
3477.0259,15.4468
3478.9543,15.3703
3480.8828,15.3081
3482.8113,15.2701
3484.7397,15.2586
3486.6682,15.2672
3488.5967,15.2817
3490.5251,15.284
3492.4536,15.2586
3494.3821,15.1978
3496.3105,15.1053
3498.2390,14.9953
3500.1675,14.8879
3502.0959,14.8032
3504.0244,14.7562
3505.9529,14.7536
3507.8813,14.7915
3509.8098,14.8548
3511.7383,14.9177
3513.6667,14.949
3515.5952,14.9225
3517.5237,14.8279
3519.4521,14.6783
3521.3806,14.5082
3523.3091,14.3625
3525.2375,14.28
3527.1660,14.2793
3529.0945,14.3513
3531.0229,14.4616
3532.9514,14.5625
3534.8799,14.6088
3536.8083,14.573
3538.7368,14.4541
3540.6653,14.2765
3542.5938,14.0817
3544.5222,13.9165
3546.4507,13.8203
3548.3792,13.8145
3550.3076,13.8925
3552.2361,14.0133
3554.1646,14.1065
3556.0930,14.0929
3558.0215,13.9189
3559.9500,13.5899
3561.8784,13.1816
3563.8069,12.8183
3565.7354,12.6224
3567.6638,12.6607
3569.5923,12.9142
3571.5208,13.2855
3573.4492,13.6389
3575.3777,13.8521
3577.3062,13.8565
3579.2346,13.6537
3581.1631,13.3058
3583.0916,12.909
3585.0200,12.5608
3586.9485,12.3316
3588.8770,12.2483
3590.8054,12.2943
3592.7339,12.4226
3594.6624,12.5753
3596.5908,12.7012
3598.5193,12.7634
3600.4478,12.7407
3602.3762,12.625
3604.3047,12.4203
3606.2332,12.1464
3608.1616,11.842
3610.0901,11.562
3612.0186,11.3643
3613.9470,11.2876
3615.8755,11.3288
3617.8040,11.4347
3619.7324,11.519
3621.6609,11.5021
3623.5894,11.3595
3625.5178,11.1481
3627.4463,10.9922
3629.3748,11.0257
3631.3032,11.3184
3633.2317,11.8246
3635.1602,12.384
3637.0886,12.7817
3639.0171,12.8387
3640.9456,12.4911
3642.8740,11.8221
3644.8025,11.0321
3646.7310,10.364
3648.6594,10.015
3650.5879,10.0729
3652.5164,10.4978
3654.4448,11.1496
3656.3733,11.8434
3658.3018,12.4049
3660.2302,12.7065
3662.1587,12.68
3664.0872,12.3181
3666.0156,11.6782
3667.9441,10.8887
3669.8726,10.1395
3671.8010,9.63924
3673.7295,9.53728
3675.6580,9.84687
3677.5864,10.4185
3679.5149,10.9967
3681.4434,11.3414
3683.3718,11.3485
3685.3003,11.0974
3687.2288,10.7936
3689.1572,10.6458
3691.0857,10.7536
3693.0142,11.0717
3694.9426,11.4579
3696.8711,11.7593
3698.7996,11.8788
3700.7280,11.7929
3702.6565,11.5362
3704.5850,11.1784
3706.5134,10.811
3708.4419,10.5312
3710.3704,10.4126
3712.2988,10.4703
3714.2273,10.6474
3716.1558,10.8408
3718.0842,10.9547
3720.0127,10.9433
3721.9412,10.814
3723.8696,10.5961
3725.7981,10.3085
3727.7266,9.95931
3729.6550,9.57226
3731.5835,9.20586
3733.5120,8.93445
3735.4404,8.79829
3737.3689,8.76412
3739.2974,8.7366
3741.2258,8.62119
3743.1543,8.3952
3745.0828,8.1343
3747.0112,7.97403
3748.9397,8.03341
3750.8682,8.35094
3752.7966,8.86946
3754.7251,9.46962
3756.6536,10.0243
3758.5820,10.4437
3760.5105,10.6964
3762.4390,10.8077
3764.3674,10.8416
3766.2959,10.8717
3768.2244,10.9495
3770.1528,11.0822
3772.0813,11.2327
3774.0098,11.3463
3775.9382,11.3883
3777.8667,11.3699
3779.7952,11.3425
3781.7236,11.3644
3783.6521,11.4603
3785.5806,11.5999
3787.5090,11.707
3789.4375,11.6936
3791.3660,11.4986
3793.2944,11.1154
3795.2229,10.5997
3797.1514,10.0575
3799.0798,9.61684
3801.0083,9.38752
3802.9368,9.41864
3804.8652,9.66967
3806.7937,10.0143
3808.7222,10.2843
3810.6506,10.3412
3812.5791,10.1409
3814.5076,9.75771
3816.4360,9.35024
3818.3645,9.08649
3820.2930,9.06585
3822.2214,9.27687
3824.1499,9.60747
3826.0784,9.89723
3828.0068,10.0055
3829.9353,9.86818
3831.8638,9.52531
3833.7922,9.10959
3835.7207,8.79581
3837.6492,8.72347
3839.5776,8.92304
3841.5061,9.28616
3843.4346,9.60799
3845.3630,9.69135
3847.2915,9.45947
3849.2200,9.00804
3851.1484,8.55772
3853.0769,8.33002
3855.0054,8.42138
3856.9338,8.75396
3858.8623,9.13193
3860.7908,9.36323
3862.7192,9.36741
3864.6477,9.20531
3866.5762,9.02243
3868.5046,8.95238
3870.4331,9.04399
3872.3616,9.24992
3874.2900,9.47026
3876.2185,9.61452
3878.1470,9.64469
3880.0754,9.5832
3882.0039,9.49229
3883.9324,9.44102
3885.8608,9.4742
3887.7893,9.59148
3889.7178,9.74282
3891.6462,9.84571
3893.5747,9.82298
3895.5032,9.64797
3897.4316,9.37269
3899.3601,9.11713
3901.2886,9.01706
3903.2170,9.15422
3905.1455,9.50846
3907.0740,9.96222
3909.0024,10.3578
3910.9309,10.5755
3912.8594,10.5867
3914.7878,10.4548
3916.7163,10.2867
3918.6448,10.1708
3920.5732,10.1375
3922.5017,10.1626
3924.4302,10.2021
3926.3586,10.2283
3928.2871,10.2447
3930.2156,10.2735
3932.1440,10.3301
3934.0725,10.4063
3936.0010,10.4733
3937.9294,10.5004
3939.8579,10.4754
3941.7864,10.4134
3943.7148,10.3478
3945.6433,10.3128
3947.5718,10.3263
3949.5002,10.3833
3951.4287,10.4618
3953.3572,10.5361
3955.2856,10.5888
3957.2141,10.6167
3959.1426,10.6269
3961.0710,10.6296
3962.9995,10.6309
3964.9280,10.6304
3966.8564,10.6247
3968.7849,10.6118
3970.7134,10.5946
3972.6418,10.5793
3974.5703,10.5721
3976.4988,10.5751
3978.4272,10.585
3980.3557,10.5951
3982.2842,10.5987
3984.2126,10.5926
3986.1411,10.5777
3988.0696,10.5586
3989.9980,10.5413
3991.9265,10.5303
3993.8550,10.5273
3995.7834,10.5298
3997.7119,10.5326
3999.6404,10.5304
4001.5688,10.5203
4003.4973,10.5032
4005.4258,10.4833
4007.3542,10.4655
4009.2827,10.4529
4011.2112,10.4452
4013.1396,10.4398
4015.0681,10.4334
4016.9966,10.4242
4018.9250,10.4123
4020.8535,10.3998
4022.7820,10.3886
4024.7104,10.3799
4026.6389,10.3743
4028.5674,10.371
4030.4958,10.3688
4032.4243,10.3655
4034.3528,10.3587
4036.2813,10.3469
4038.2097,10.33
4040.1382,10.3104
4042.0667,10.2921
4043.9951,10.2786
4045.9236,10.2716
4047.8521,10.2697
4049.7805,10.2695
4051.7090,10.2675
4053.6375,10.2617
4055.5659,10.2526
4057.4944,10.242
4059.4229,10.232
4061.3513,10.2236
4063.2798,10.2167
4065.2083,10.21
4067.1367,10.2023
4069.0652,10.1926
4070.9937,10.1809
4072.9221,10.1677
4074.8506,10.1541
4076.7791,10.1409
4078.7075,10.1287
4080.6360,10.1179
4082.5645,10.1083
4084.4929,10.1
4086.4214,10.0929
4088.3499,10.087
4090.2783,10.0823
4092.2068,10.0777
4094.1353,10.0721
4096.0640,10.0639
4097.9922,10.0523
4099.9209,10.0378
4101.8491,10.0224
4103.7778,10.0085
4105.7061,9.99807
4107.6348,9.9915
4109.5630,9.9877
4111.4917,9.98461
4113.4199,9.98035
4115.3486,9.97402
4117.2769,9.96584
4119.2056,9.9567
4121.1338,9.94739
4123.0625,9.9382
4124.9907,9.92884
4126.9194,9.9189
4128.8477,9.90819
4130.7764,9.89701
4132.7046,9.88598
4134.6333,9.87581
4136.5615,9.86691
4138.4902,9.85929
4140.4185,9.85256
4142.3472,9.84616
4144.2754,9.83952
4146.2041,9.83229
4148.1323,9.82436
4150.0610,9.81588
4151.9893,9.80716
4153.9180,9.7985
4155.8462,9.79013
4157.7749,9.78207
4159.7031,9.7742
4161.6318,9.76628
4163.5601,9.75811
4165.4888,9.74965
4167.4170,9.74097
4169.3457,9.73225
4171.2739,9.72361
4173.2026,9.71508
4175.1309,9.7066
4177.0596,9.69812
4178.9878,9.68963
4180.9165,9.68118
4182.8447,9.67283
4184.7734,9.66465
4186.7017,9.65663
4188.6304,9.64875
4190.5586,9.64094
4192.4873,9.63313
4194.4155,9.62523
4196.3442,9.61711
4198.2725,9.60873
4200.2012,9.60018
4202.1294,9.59164
4204.0581,9.58335
4205.9863,9.57542
4207.9150,9.56778
4209.8433,9.5602
4211.7720,9.55244
4213.7002,9.54439
4215.6289,9.53611
4217.5571,9.5278
4219.4858,9.51963
4221.4141,9.51166
4223.3428,9.50384
4225.2710,9.4961
4227.1997,9.48836
4229.1279,9.4806
4231.0566,9.47279
4232.9849,9.46487
4234.9136,9.45676
4236.8418,9.44844
4238.7705,9.43995
4240.6987,9.43139
4242.6274,9.42287
4244.5557,9.41442
4246.4844,9.40604
4248.4126,9.39773
4250.3413,9.38952
4252.2695,9.38145
4254.1982,9.37353
4256.1265,9.3657
4258.0552,9.35784
4259.9834,9.34984
4261.9121,9.34164
4263.8403,9.33328
4265.7690,9.32488
4267.6973,9.31655
4269.6260,9.30837
4271.5542,9.30031
4273.4829,9.29232
4275.4111,9.28436
4277.3398,9.27643
4279.2681,9.2686
4281.1968,9.26095
4283.1250,9.25354
4285.0537,9.24634
4286.9819,9.23925
4288.9106,9.23214
4290.8389,9.2249
4292.7676,9.21745
4294.6958,9.20979
4296.6245,9.20198
4298.5527,9.19407
4300.4814,9.18614
4302.4097,9.1782
4304.3384,9.17025
4306.2666,9.16227
4308.1953,9.15423
4310.1235,9.14613
4312.0522,9.13799
4313.9805,9.12984
4315.9092,9.12173
4317.8374,9.11368
4319.7661,9.10568
4321.6943,9.09771
4323.6230,9.08975
4325.5513,9.08177
4327.4800,9.07375
4329.4082,9.06567
4331.3369,9.05751
4333.2651,9.0493
4335.1938,9.04108
4337.1221,9.03294
4339.0508,9.02491
4340.9790,9.01701
4342.9077,9.00917
4344.8359,9.00128
4346.7646,8.99328
4348.6929,8.98514
4350.6216,8.97691
4352.5498,8.96868
4354.4785,8.96055
4356.4067,8.95257
4358.3354,8.94475
4360.2637,8.93701
4362.1924,8.92927
4364.1206,8.92139
4366.0493,8.91332
4367.9775,8.90504
4369.9063,8.89664
4371.8345,8.88826
4373.7632,8.88001
4375.6914,8.87193
4377.6201,8.86398
4379.5483,8.85606
4381.4771,8.84807
4383.4053,8.83997
4385.3340,8.8318
4387.2622,8.82362
4389.1909,8.81547
4391.1191,8.80737
4393.0479,8.79928
4394.9761,8.79119
4396.9048,8.78309
4398.8330,8.77496
4400.7617,8.76681
4402.6899,8.75864
4404.6187,8.75044
4406.5469,8.74223
4408.4756,8.73403
4410.4038,8.72585
4412.3325,8.71768
4414.2607,8.70949
4416.1895,8.70123
4418.1177,8.6929
4420.0464,8.68455
4421.9746,8.67622
4423.9033,8.668
4425.8315,8.65991
4427.7603,8.65196
4429.6885,8.64411
4431.6172,8.63633
4433.5454,8.62856
4435.4741,8.62074
4437.4023,8.61282
4439.3311,8.60475
4441.2593,8.59653
4443.1880,8.58819
4445.1162,8.57981
4447.0449,8.57145
4448.9731,8.56312
4450.9019,8.55484
4452.8301,8.54657
4454.7588,8.53828
4456.6870,8.52999
4458.6157,8.52171
4460.5439,8.5135
4462.4727,8.50539
4464.4009,8.49738
4466.3296,8.48944
4468.2578,8.48143
4470.1865,8.47323
4472.1147,8.46473
4474.0435,8.45596
4475.9717,8.44703
4477.9004,8.43815
4479.8286,8.42952
4481.7573,8.42121
4483.6855,8.41315
4485.6143,8.40518
4487.5425,8.39711
4489.4712,8.38883
4491.3994,8.38039
4493.3281,8.37189
4495.2563,8.36348
4497.1851,8.35523
4499.1133,8.34708
4501.0420,8.33892
4502.9702,8.33059
4504.8989,8.32205
4506.8271,8.31336
4508.7559,8.30466
4510.6841,8.29608
4512.6128,8.28769
4514.5410,8.27947
4516.4697,8.27131
4518.3979,8.26313
4520.3267,8.25489
4522.2549,8.24661
4524.1836,8.23832
4526.1118,8.23007
4528.0405,8.22187
4529.9688,8.21373
4531.8975,8.20569
4533.8257,8.19781
4535.7544,8.1901
4537.6826,8.18257
4539.6113,8.17514
4541.5396,8.16771
4543.4683,8.16019
4545.3965,8.15254
4547.3252,8.14477
4549.2534,8.13694
4551.1821,8.12914
4553.1104,8.12142
4555.0391,8.11381
4556.9673,8.10635
4558.8960,8.09902
4560.8242,8.0918
4562.7529,8.08458
4564.6812,8.07727
4566.6099,8.06976
4568.5381,8.06206
4570.4668,8.05427
4572.3950,8.04655
4574.3237,8.03901
4576.2520,8.0317
4578.1807,8.02453
4580.1089,8.01739
4582.0376,8.01016
4583.9658,8.00279
4585.8945,7.9953
4587.8228,7.98774
4589.7515,7.98016
4591.6797,7.97255
4593.6084,7.96491
4595.5366,7.95721
4597.4653,7.94946
4599.3936,7.94167
4601.3223,7.93386
4603.2505,7.92606
4605.1792,7.91832
4607.1074,7.91065
4609.0361,7.90304
4610.9644,7.89543
4612.8931,7.88773
4614.8213,7.87989
4616.7500,7.8719
4618.6782,7.86383
4620.6069,7.85579
4622.5352,7.84785
4624.4639,7.84004
4626.3921,7.8323
4628.3208,7.82456
4630.2490,7.81674
4632.1777,7.80882
4634.1060,7.80081
4636.0347,7.79274
4637.9629,7.78469
4639.8916,7.77673
4641.8198,7.7689
4643.7485,7.76122
4645.6768,7.75361
4647.6055,7.74597
4649.5337,7.73821
4651.4624,7.73033
4653.3906,7.72242
4655.3193,7.71459
4657.2476,7.70694
4659.1763,7.69944
4661.1045,7.692
4663.0332,7.68451
4664.9614,7.67691
4666.8901,7.66923
4668.8184,7.66155
4670.7471,7.65394
4672.6753,7.64641
4674.6040,7.63892
4676.5322,7.63141
4678.4609,7.62387
4680.3892,7.61634
4682.3179,7.60891
4684.2461,7.6017
4686.1748,7.5948
4688.1030,7.58822
4690.0317,7.58185
4691.9600,7.5755
4693.8887,7.56894
4695.8169,7.56198
4697.7456,7.55452
4699.6738,7.54658
4701.6025,7.53828
4703.5308,7.52977
4705.4595,7.5212
4707.3877,7.5127
4709.3164,7.50434
4711.2446,7.49619
4713.1733,7.48827
4715.1016,7.48054
4717.0303,7.47298
4718.9585,7.46553
4720.8872,7.45816
4722.8154,7.45087
4724.7441,7.44365
4726.6724,7.43649
4728.6011,7.4294
4730.5293,7.42236
4732.4580,7.41542
4734.3862,7.40859
4736.3149,7.40187
4738.2432,7.39525
4740.1719,7.38867
4742.1001,7.38214
4744.0288,7.37567
4745.9570,7.36934
4747.8857,7.36317
4749.8140,7.35712
4751.7427,7.35108
4753.6709,7.34489
4755.5996,7.33851
4757.5278,7.33197
4759.4565,7.3254
4761.3848,7.31894
4763.3135,7.31263
4765.2417,7.30639
4767.1704,7.30004
4769.0986,7.29343
4771.0273,7.28651
4772.9556,7.27934
4774.8843,7.27206
4776.8125,7.26479
4778.7412,7.25753
4780.6694,7.25021
4782.5981,7.24272
4784.5264,7.23506
4786.4551,7.2273
4788.3833,7.21963
4790.3120,7.21222
4792.2402,7.20511
4794.1689,7.19819
4796.0972,7.19126
4798.0259,7.18413
4799.9541,7.17674
4801.8828,7.16919
4803.8110,7.16166
4805.7397,7.15431
4807.6680,7.14718
4809.5967,7.14015
4811.5249,7.13306
4813.4536,7.12575
4815.3818,7.1182
4817.3105,7.11048
4819.2388,7.10273
4821.1675,7.0951
4823.0957,7.08761
4825.0244,7.08024
4826.9526,7.07289
4828.8813,7.0655
4830.8096,7.05806
4832.7383,7.0506
4834.6665,7.04317
4836.5952,7.03583
4838.5234,7.02857
4840.4521,7.0214
4842.3804,7.01433
4844.3091,7.00737
4846.2373,7.00049
4848.1660,6.99362
4850.0942,6.98662
4852.0229,6.97941
4853.9512,6.97195
4855.8799,6.96433
4857.8081,6.95673
4859.7368,6.94927
4861.6650,6.942
4863.5938,6.93484
4865.5220,6.92772
4867.4507,6.92056
4869.3789,6.91338
4871.3076,6.90624
4873.2358,6.89917
4875.1646,6.89217
4877.0928,6.88516
4879.0215,6.87813
4880.9497,6.87107
4882.8784,6.86403
4884.8066,6.85703
4886.7354,6.85004
4888.6636,6.84295
4890.5923,6.83571
4892.5205,6.82834
4894.4492,6.82094
4896.3774,6.81365
4898.3062,6.80655
4900.2344,6.79964
4902.1631,6.79282
4904.0913,6.78598
4906.0200,6.77906
4907.9482,6.77206
4909.8770,6.76502
4911.8052,6.75799
4913.7339,6.75097
4915.6621,6.74394
4917.5908,6.73684
4919.5190,6.72967
4921.4478,6.72242
4923.3760,6.71513
4925.3047,6.70788
4927.2329,6.70071
4929.1616,6.69364
4931.0898,6.68665
4933.0186,6.67964
4934.9468,6.67253
4936.8755,6.66525
4938.8037,6.65783
4940.7324,6.65036
4942.6606,6.64299
4944.5894,6.6358
4946.5176,6.62876
4948.4463,6.62175
4950.3745,6.61463
4952.3032,6.60733
4954.2314,6.59986
4956.1602,6.59236
4958.0884,6.58495
4960.0171,6.57772
4961.9453,6.57068
4963.8740,6.56379
4965.8022,6.55704
4967.7310,6.55046
4969.6592,6.54405
4971.5879,6.53778
4973.5161,6.53148
4975.4448,6.52494
4977.3730,6.51795
4979.3018,6.51041
4981.2300,6.50241
4983.1587,6.49418
4985.0869,6.486
4987.0156,6.47816
4988.9438,6.4708
4990.8726,6.46399
4992.8008,6.45763
4994.7295,6.45157
4996.6577,6.4456
4998.5864,6.43955
5000.5146,6.43332
5002.4434,6.42689
5004.3716,6.42035
5006.3003,6.41383
5008.2285,6.40741
5010.1572,6.40108
5012.0854,6.39474
5014.0142,6.38821
5015.9424,6.38134
5017.8711,6.37415
5019.7993,6.36677
5021.7280,6.35943
5023.6563,6.35229
5025.5850,6.34538
5027.5132,6.33864
5029.4419,6.33198
5031.3701,6.32539
5033.2988,6.31892
5035.2271,6.31259
5037.1558,6.30627
5039.0840,6.2997
5041.0127,6.29266
5042.9409,6.28508
5044.8696,6.27718
5046.7979,6.26936
5048.7266,6.262
5050.6548,6.25526
5052.5835,6.24904
5054.5117,6.24304
5056.4404,6.23692
5058.3687,6.23047
5060.2974,6.22359
5062.2256,6.21632
5064.1543,6.20879
5066.0825,6.20119
5068.0112,6.19373
5069.9395,6.18662
5071.8682,6.17992
5073.7964,6.17355
5075.7251,6.16732
5077.6533,6.16101
5079.5820,6.1545
5081.5103,6.14777
5083.4390,6.14078
5085.3672,6.13348
5087.2959,6.12576
5089.2241,6.11764
5091.1528,6.10935
5093.0811,6.10128
5095.0098,6.09382
5096.9380,6.08709
5098.8667,6.0809
5100.7949,6.07484
5102.7236,6.06854
5104.6519,6.06174
5106.5806,6.05433
5108.5088,6.04624
5110.4375,6.03757
5112.3657,6.02868
5114.2944,6.02023
5116.2227,6.01299
5118.1514,6.00736
5120.0796,6.00304
5122.0083,5.99911
5123.9365,5.9945
5125.8652,5.98853
5127.7935,5.98109
5129.7222,5.97247
5131.6504,5.963
5133.5791,5.95292
5135.5073,5.94257
5137.4360,5.93262
5139.3643,5.92397
5141.2930,5.91712
5143.2212,5.91166
5145.1499,5.90611
5147.0781,5.89849
5149.0068,5.88736
5150.9351,5.87266
5152.8638,5.85594
5154.7920,5.83972
5156.7207,5.82641
5158.6489,5.81721
5160.5776,5.81178
5162.5059,5.8086
5164.4346,5.80611
5166.3628,5.80352
5168.2915,5.80085
5170.2197,5.79805
5172.1484,5.79406
5174.0767,5.78671
5176.0054,5.77402
5177.9336,5.75594
5179.8623,5.73517
5181.7905,5.71613
5183.7192,5.70266
5185.6475,5.6961
5187.5762,5.69508
5189.5044,5.69681
5191.4331,5.69839
5193.3613,5.69671
5195.2900,5.68764
5197.2183,5.66621
5199.1470,5.62934
5201.0752,5.57985
5203.0039,5.52857
5204.9321,5.49146
5206.8608,5.48207
5208.7891,5.50349
5210.7178,5.54523
5212.6460,5.58757
5214.5747,5.61121
5216.5029,5.6063
5218.4316,5.57586
5220.3599,5.53247
5222.2886,5.49129
5224.2168,5.46388
5226.1455,5.4555
5228.0737,5.46553
5230.0024,5.48883
5231.9307,5.51681
5233.8594,5.53854
5235.7876,5.54307
5237.7163,5.5232
5239.6445,5.47925
5241.5732,5.4204
5243.5015,5.36198
5245.4302,5.31964
5247.3584,5.3028
5249.2871,5.31072
5251.2153,5.3329
5253.1440,5.3539
5255.0723,5.3603
5257.0010,5.34688
5258.9292,5.31905
5260.8579,5.2904
5262.7861,5.2763
5264.7148,5.28655
5266.6431,5.32066
5268.5718,5.36833
5270.5000,5.41448
5272.4287,5.44603
5274.3569,5.4568
5276.2856,5.44812
5278.2139,5.42601
5280.1426,5.39733
5282.0708,5.36751
5283.9995,5.34071
5285.9277,5.32083
5287.8564,5.3117
5289.7847,5.31537
5291.7134,5.32996
5293.6416,5.34892
5295.5703,5.36318
5297.4985,5.3652
5299.4272,5.35277
5301.3555,5.33001
5303.2842,5.30518
5305.2124,5.28659
5307.1411,5.27919
5309.0693,5.28316
5310.9980,5.29471
5312.9263,5.3078
5314.8550,5.31574
5316.7832,5.31269
5318.7119,5.29517
5320.6401,5.26354
5322.5688,5.22244
5324.4971,5.17903
5326.4258,5.13933
5328.3540,5.10462
5330.2827,5.07083
5332.2109,5.03184
5334.1396,4.9848
5336.0679,4.93368
5337.9966,4.88809
5339.9248,4.85787
5341.8535,4.84746
5343.7817,4.85399
5345.7104,4.8704
5347.6387,4.89081
5349.5674,4.91384
5351.4956,4.94163
5353.4243,4.97592
5355.3525,5.01495
5357.2813,5.05358
5359.2095,5.086
5361.1382,5.10835
5363.0664,5.11887
5364.9951,5.11643
5366.9233,5.09962
5368.8521,5.06813
5370.7803,5.02549
5372.7090,4.98025
5374.6372,4.94357
5376.5659,4.92397
5378.4941,4.92275
5380.4229,4.93308
5382.3511,4.94365
5384.2798,4.94436
5386.2080,4.93106
5388.1367,4.90702
5390.0649,4.88119
5391.9937,4.86445
5393.9219,4.86508
5395.8506,4.88468
5397.7788,4.91584
5399.7075,4.9432
5401.6357,4.94884
5403.5645,4.92064
5405.4927,4.85985
5407.4214,4.78325
5409.3496,4.71748
5411.2783,4.68726
5413.2065,4.70347
5415.1353,4.75723
5417.0635,4.82355
5418.9922,4.8728
5420.9204,4.88408
5422.8491,4.8538
5424.7773,4.79555
5426.7061,4.73202
5428.6343,4.68367
5430.5630,4.65994
5432.4912,4.65698
5434.4199,4.66212
5436.3481,4.66204
5438.2769,4.65022
5440.2051,4.62995
5442.1338,4.61184
5444.0620,4.60761
5445.9907,4.62332
5447.9189,4.65568
5449.8477,4.69311
5451.7759,4.72124
5453.7046,4.72992
5455.6328,4.71816
5457.5615,4.69418
5459.4897,4.67048
5461.4185,4.65673
5463.3467,4.65464
5465.2754,4.65801
5467.2036,4.65778
5469.1323,4.6489
5471.0605,4.63421
5472.9893,4.62282
5474.9175,4.62371
5476.8462,4.63904
5478.7744,4.66145
5480.7031,4.67752
5482.6313,4.67533
5484.5601,4.65149
5486.4883,4.61341
5488.4170,4.57555
5490.3452,4.5519
5492.2739,4.54911
5494.2021,4.56394
5496.1309,4.58595
5498.0591,4.60351
5499.9878,4.60951
5501.9160,4.60387
5503.8447,4.59195
5505.7729,4.58052
5507.7017,4.57377
5509.6299,4.57164
5511.5586,4.57099
5513.4868,4.56833
5515.4155,4.56234
5517.3438,4.5544
5519.2725,4.54732
5521.2007,4.54315
5523.1294,4.54174
5525.0576,4.54084
5526.9863,4.53767
5528.9146,4.53064
5530.8433,4.52032
5532.7715,4.50898
5534.7002,4.49913
5536.6284,4.49212
5538.5571,4.48744
5540.4854,4.48324
5542.4141,4.47745
5544.3423,4.46904
5546.2710,4.45851
5548.1992,4.44755
5550.1279,4.43808
5552.0562,4.43127
5553.9849,4.42698
5555.9131,4.42399
5557.8418,4.4207
5559.7700,4.41588
5561.6987,4.40919
5563.6270,4.40104
5565.5557,4.39225
5567.4839,4.38353
5569.4126,4.3752
5571.3408,4.36726
5573.2695,4.3595
5575.1978,4.3518
5577.1265,4.34414
5579.0547,4.33657
5580.9834,4.32912
5582.9116,4.32175
5584.8403,4.31433
5586.7686,4.30672
5588.6973,4.29878
5590.6255,4.29047
5592.5542,4.2818
5594.4824,4.2729
5596.4111,4.26399
5598.3394,4.2553
5600.2681,4.247
5602.1963,4.23917
5604.1250,4.23167
5606.0532,4.2243
5607.9819,4.21682
5609.9102,4.20909
5611.8389,4.20107
5613.7671,4.19282
5615.6958,4.18442
5617.6240,4.17594
5619.5527,4.16743
5621.4810,4.15895
5623.4097,4.15058
5625.3379,4.14236
5627.2666,4.13428
5629.1948,4.12625
5631.1235,4.1182
5633.0518,4.11005
5634.9805,4.10183
5636.9087,4.0936
5638.8374,4.0854
5640.7656,4.07725
5642.6943,4.0691
5644.6226,4.06094
5646.5513,4.05277
5648.4795,4.0446
5650.4082,4.03642
5652.3364,4.02813
5654.2651,4.01964
5656.1934,4.01092
5658.1221,4.00208
5660.0503,3.99334
5661.9790,3.98489
5663.9072,3.97685
5665.8359,3.96912
5667.7642,3.96151
5669.6929,3.95382
5671.6211,3.94596
5673.5498,3.93793
5675.4780,3.9298
5677.4067,3.92162
5679.3350,3.91338
5681.2637,3.90505
5683.1919,3.8966
5685.1206,3.88805
5687.0488,3.87948
5688.9775,3.87096
5690.9058,3.86253
5692.8345,3.85422
5694.7627,3.84599
5696.6914,3.83782
5698.6196,3.82969
5700.5483,3.82155
5702.4766,3.81337
5704.4053,3.80514
5706.3335,3.79691
5708.2622,3.78873
5710.1904,3.78067
5712.1191,3.77273
5714.0474,3.76484
5715.9761,3.75688
5717.9043,3.74876
5719.8330,3.74053
5721.7612,3.73229
5723.6899,3.72421
5725.6182,3.71639
5727.5469,3.70878
5729.4751,3.70123
5731.4038,3.69353
5733.3320,3.68553
5735.2607,3.67726
5737.1890,3.66881
5739.1177,3.66038
5741.0459,3.65211
5742.9746,3.64406
5744.9028,3.63619
5746.8315,3.62842
5748.7598,3.62062
5750.6885,3.61273
5752.6167,3.60475
5754.5454,3.59671
5756.4736,3.5887
5758.4023,3.5808
5760.3306,3.57302
5762.2593,3.56532
5764.1875,3.5576
5766.1162,3.54978
5768.0444,3.54184
5769.9731,3.5338
5771.9014,3.52571
5773.8301,3.51762
5775.7583,3.50955
5777.6870,3.5015
5779.6152,3.49347
5781.5439,3.48549
5783.4722,3.47761
5785.4009,3.46985
5787.3291,3.46219
5789.2578,3.45456
5791.1860,3.4469
5793.1147,3.43916
5795.0430,3.43136
5796.9717,3.42357
5798.8999,3.41586
5800.8286,3.40827
5802.7568,3.4008
5804.6855,3.39339
5806.6138,3.38598
5808.5425,3.3785
5810.4707,3.37089
5812.3994,3.36314
5814.3276,3.35528
5816.2563,3.34739
5818.1846,3.33955
5820.1133,3.33181
5822.0415,3.32418
5823.9702,3.31663
5825.8984,3.30908
5827.8271,3.30147
5829.7554,3.29381
5831.6841,3.28613
5833.6123,3.27852
5835.5410,3.27102
5837.4692,3.26364
5839.3979,3.25633
5841.3262,3.24907
5843.2549,3.2418
5845.1831,3.23453
5847.1118,3.22724
5849.0400,3.21991
5850.9688,3.21255
5852.8970,3.20515
5854.8257,3.19777
5856.7539,3.19043
5858.6826,3.18315
5860.6108,3.17591
5862.5396,3.16866
5864.4678,3.16136
5866.3965,3.15403
5868.3247,3.14672
5870.2534,3.13948
5872.1816,3.13233
5874.1104,3.12526
5876.0386,3.11824
5877.9673,3.11127
5879.8955,3.10435
5881.8242,3.09744
5883.7524,3.09051
5885.6812,3.08349
5887.6094,3.07634
5889.5381,3.06909
5891.4663,3.06182
5893.3950,3.05461
5895.3232,3.04749
5897.2520,3.04045
5899.1802,3.03343
5901.1089,3.0264
5903.0371,3.01934
5904.9658,3.01231
5906.8940,3.00532
5908.8228,2.99837
5910.7510,2.99143
5912.6797,2.98447
5914.6079,2.97749
5916.5366,2.97052
5918.4648,2.96357
5920.3936,2.95664
5922.3218,2.94971
5924.2505,2.94277
5926.1787,2.93581
5928.1074,2.92889
5930.0356,2.92204
5931.9644,2.91527
5933.8926,2.90855
5935.8213,2.90182
5937.7495,2.89505
5939.6782,2.88823
5941.6064,2.88141
5943.5352,2.87467
5945.4634,2.86806
5947.3921,2.86158
5949.3203,2.85515
5951.2490,2.84872
5953.1772,2.84222
5955.1060,2.83566
5957.0342,2.82906
5958.9629,2.82247
5960.8911,2.81591
5962.8198,2.80932
5964.7480,2.80264
5966.6768,2.79585
5968.6050,2.78893
5970.5337,2.78196
5972.4619,2.77503
5974.3906,2.76823
5976.3188,2.76158
5978.2476,2.75507
5980.1758,2.74864
5982.1045,2.74225
5984.0327,2.73585
5985.9614,2.72943
5987.8896,2.72297
5989.8184,2.71649
5991.7466,2.70999
5993.6753,2.70349
5995.6035,2.69701
5997.5322,2.69056
5999.4604,2.68412
6001.3892,2.67769

##### Extended Information
[コメント情報]
試料名,test
コメント,test
測定者,test
所属,test
会社,NAIST

[データ情報]
作成日時,2026/02/12 12:28

データタイプ,等間隔データ
横軸,Wavenumber [cm-1]
縦軸,Int.
スタート,998.946 cm-1
エンド,6001.39 cm-1
データ間隔,1.92847 cm-1
データ数,2595    

[測定情報]
機種名,FT/IR-4600typeA
シリアル番号,E137161786

測定日時,2026/02/12 12:28

光源,標準光源
検出器,TGS
積算回数,8
分解,8 cm-1
ゼロフィリング,On
アポダイゼーション,Cosine
ゲイン,Auto (1)
アパーチャー,Auto (7.1 mm)
スキャンスピード,Auto (2 mm/sec)
フィルタ,Auto (30000 Hz)

