TITLE,test
DATA TYPE,INFRARED INTERFEROGRAM
ORIGIN,JASCO
OWNER,test
DATE,26/02/12
TIME,12:27:08
SPECTROMETER/DATA SYSTEM,
LOCALE,1041
RESOLUTION,
DELTAX,1
XUNITS,Position [AU]
YUNITS,Int.
FIRSTX,-4095.0000
LASTX, 4096.0000
NPOINTS,    8192
FIRSTY,     0.00000
MAXY,     8.65631
MINY,    -3.27958
XYDATA
-4095.0000,0
-4094.0000,0
-4093.0000,0
-4092.0000,0
-4091.0000,0
-4090.0000,0
-4089.0000,0
-4088.0000,0
-4087.0000,0
-4086.0000,0
-4085.0000,0
-4084.0000,0
-4083.0000,0
-4082.0000,0
-4081.0000,0
-4080.0000,0
-4079.0000,0
-4078.0000,0
-4077.0000,0
-4076.0000,0
-4075.0000,0
-4074.0000,0
-4073.0000,0
-4072.0000,0
-4071.0000,0
-4070.0000,0
-4069.0000,0
-4068.0000,0
-4067.0000,0
-4066.0000,0
-4065.0000,0
-4064.0000,0
-4063.0000,0
-4062.0000,0
-4061.0000,0
-4060.0000,0
-4059.0000,0
-4058.0000,0
-4057.0000,0
-4056.0000,0
-4055.0000,0
-4054.0000,0
-4053.0000,0
-4052.0000,0
-4051.0000,0
-4050.0000,0
-4049.0000,0
-4048.0000,0
-4047.0000,0
-4046.0000,0
-4045.0000,0
-4044.0000,0
-4043.0000,0
-4042.0000,0
-4041.0000,0
-4040.0000,0
-4039.0000,0
-4038.0000,0
-4037.0000,0
-4036.0000,0
-4035.0000,0
-4034.0000,0
-4033.0000,0
-4032.0000,0
-4031.0000,0
-4030.0000,0
-4029.0000,0
-4028.0000,0
-4027.0000,0
-4026.0000,0
-4025.0000,0
-4024.0000,0
-4023.0000,0
-4022.0000,0
-4021.0000,0
-4020.0000,0
-4019.0000,0
-4018.0000,0
-4017.0000,0
-4016.0000,0
-4015.0000,0
-4014.0000,0
-4013.0000,0
-4012.0000,0
-4011.0000,0
-4010.0000,0
-4009.0000,0
-4008.0000,0
-4007.0000,0
-4006.0000,0
-4005.0000,0
-4004.0000,0
-4003.0000,0
-4002.0000,0
-4001.0000,0
-4000.0000,0
-3999.0000,0
-3998.0000,0
-3997.0000,0
-3996.0000,0
-3995.0000,0
-3994.0000,0
-3993.0000,0
-3992.0000,0
-3991.0000,0
-3990.0000,0
-3989.0000,0
-3988.0000,0
-3987.0000,0
-3986.0000,0
-3985.0000,0
-3984.0000,0
-3983.0000,0
-3982.0000,0
-3981.0000,0
-3980.0000,0
-3979.0000,0
-3978.0000,0
-3977.0000,0
-3976.0000,0
-3975.0000,0
-3974.0000,0
-3973.0000,0
-3972.0000,0
-3971.0000,0
-3970.0000,0
-3969.0000,0
-3968.0000,0
-3967.0000,0
-3966.0000,0
-3965.0000,0
-3964.0000,0
-3963.0000,0
-3962.0000,0
-3961.0000,0
-3960.0000,0
-3959.0000,0
-3958.0000,0
-3957.0000,0
-3956.0000,0
-3955.0000,0
-3954.0000,0
-3953.0000,0
-3952.0000,0
-3951.0000,0
-3950.0000,0
-3949.0000,0
-3948.0000,0
-3947.0000,0
-3946.0000,0
-3945.0000,0
-3944.0000,0
-3943.0000,0
-3942.0000,0
-3941.0000,0
-3940.0000,0
-3939.0000,0
-3938.0000,0
-3937.0000,0
-3936.0000,0
-3935.0000,0
-3934.0000,0
-3933.0000,0
-3932.0000,0
-3931.0000,0
-3930.0000,0
-3929.0000,0
-3928.0000,0
-3927.0000,0
-3926.0000,0
-3925.0000,0
-3924.0000,0
-3923.0000,0
-3922.0000,0
-3921.0000,0
-3920.0000,0
-3919.0000,0
-3918.0000,0
-3917.0000,0
-3916.0000,0
-3915.0000,0
-3914.0000,0
-3913.0000,0
-3912.0000,0
-3911.0000,0
-3910.0000,0
-3909.0000,0
-3908.0000,0
-3907.0000,0
-3906.0000,0
-3905.0000,0
-3904.0000,0
-3903.0000,0
-3902.0000,0
-3901.0000,0
-3900.0000,0
-3899.0000,0
-3898.0000,0
-3897.0000,0
-3896.0000,0
-3895.0000,0
-3894.0000,0
-3893.0000,0
-3892.0000,0
-3891.0000,0
-3890.0000,0
-3889.0000,0
-3888.0000,0
-3887.0000,0
-3886.0000,0
-3885.0000,0
-3884.0000,0
-3883.0000,0
-3882.0000,0
-3881.0000,0
-3880.0000,0
-3879.0000,0
-3878.0000,0
-3877.0000,0
-3876.0000,0
-3875.0000,0
-3874.0000,0
-3873.0000,0
-3872.0000,0
-3871.0000,0
-3870.0000,0
-3869.0000,0
-3868.0000,0
-3867.0000,0
-3866.0000,0
-3865.0000,0
-3864.0000,0
-3863.0000,0
-3862.0000,0
-3861.0000,0
-3860.0000,0
-3859.0000,0
-3858.0000,0
-3857.0000,0
-3856.0000,0
-3855.0000,0
-3854.0000,0
-3853.0000,0
-3852.0000,0
-3851.0000,0
-3850.0000,0
-3849.0000,0
-3848.0000,0
-3847.0000,0
-3846.0000,0
-3845.0000,0
-3844.0000,0
-3843.0000,0
-3842.0000,0
-3841.0000,0
-3840.0000,0
-3839.0000,0
-3838.0000,0
-3837.0000,0
-3836.0000,0
-3835.0000,0
-3834.0000,0
-3833.0000,0
-3832.0000,0
-3831.0000,0
-3830.0000,0
-3829.0000,0
-3828.0000,0
-3827.0000,0
-3826.0000,0
-3825.0000,0
-3824.0000,0
-3823.0000,0
-3822.0000,0
-3821.0000,0
-3820.0000,0
-3819.0000,0
-3818.0000,0
-3817.0000,0
-3816.0000,0
-3815.0000,0
-3814.0000,0
-3813.0000,0
-3812.0000,0
-3811.0000,0
-3810.0000,0
-3809.0000,0
-3808.0000,0
-3807.0000,0
-3806.0000,0
-3805.0000,0
-3804.0000,0
-3803.0000,0
-3802.0000,0
-3801.0000,0
-3800.0000,0
-3799.0000,0
-3798.0000,0
-3797.0000,0
-3796.0000,0
-3795.0000,0
-3794.0000,0
-3793.0000,0
-3792.0000,0
-3791.0000,0
-3790.0000,0
-3789.0000,0
-3788.0000,0
-3787.0000,0
-3786.0000,0
-3785.0000,0
-3784.0000,0
-3783.0000,0
-3782.0000,0
-3781.0000,0
-3780.0000,0
-3779.0000,0
-3778.0000,0
-3777.0000,0
-3776.0000,0
-3775.0000,0
-3774.0000,0
-3773.0000,0
-3772.0000,0
-3771.0000,0
-3770.0000,0
-3769.0000,0
-3768.0000,0
-3767.0000,0
-3766.0000,0
-3765.0000,0
-3764.0000,0
-3763.0000,0
-3762.0000,0
-3761.0000,0
-3760.0000,0
-3759.0000,0
-3758.0000,0
-3757.0000,0
-3756.0000,0
-3755.0000,0
-3754.0000,0
-3753.0000,0
-3752.0000,0
-3751.0000,0
-3750.0000,0
-3749.0000,0
-3748.0000,0
-3747.0000,0
-3746.0000,0
-3745.0000,0
-3744.0000,0
-3743.0000,0
-3742.0000,0
-3741.0000,0
-3740.0000,0
-3739.0000,0
-3738.0000,0
-3737.0000,0
-3736.0000,0
-3735.0000,0
-3734.0000,0
-3733.0000,0
-3732.0000,0
-3731.0000,0
-3730.0000,0
-3729.0000,0
-3728.0000,0
-3727.0000,0
-3726.0000,0
-3725.0000,0
-3724.0000,0
-3723.0000,0
-3722.0000,0
-3721.0000,0
-3720.0000,0
-3719.0000,0
-3718.0000,0
-3717.0000,0
-3716.0000,0
-3715.0000,0
-3714.0000,0
-3713.0000,0
-3712.0000,0
-3711.0000,0
-3710.0000,0
-3709.0000,0
-3708.0000,0
-3707.0000,0
-3706.0000,0
-3705.0000,0
-3704.0000,0
-3703.0000,0
-3702.0000,0
-3701.0000,0
-3700.0000,0
-3699.0000,0
-3698.0000,0
-3697.0000,0
-3696.0000,0
-3695.0000,0
-3694.0000,0
-3693.0000,0
-3692.0000,0
-3691.0000,0
-3690.0000,0
-3689.0000,0
-3688.0000,0
-3687.0000,0
-3686.0000,0
-3685.0000,0
-3684.0000,0
-3683.0000,0
-3682.0000,0
-3681.0000,0
-3680.0000,0
-3679.0000,0
-3678.0000,0
-3677.0000,0
-3676.0000,0
-3675.0000,0
-3674.0000,0
-3673.0000,0
-3672.0000,0
-3671.0000,0
-3670.0000,0
-3669.0000,0
-3668.0000,0
-3667.0000,0
-3666.0000,0
-3665.0000,0
-3664.0000,0
-3663.0000,0
-3662.0000,0
-3661.0000,0
-3660.0000,0
-3659.0000,0
-3658.0000,0
-3657.0000,0
-3656.0000,0
-3655.0000,0
-3654.0000,0
-3653.0000,0
-3652.0000,0
-3651.0000,0
-3650.0000,0
-3649.0000,0
-3648.0000,0
-3647.0000,0
-3646.0000,0
-3645.0000,0
-3644.0000,0
-3643.0000,0
-3642.0000,0
-3641.0000,0
-3640.0000,0
-3639.0000,0
-3638.0000,0
-3637.0000,0
-3636.0000,0
-3635.0000,0
-3634.0000,0
-3633.0000,0
-3632.0000,0
-3631.0000,0
-3630.0000,0
-3629.0000,0
-3628.0000,0
-3627.0000,0
-3626.0000,0
-3625.0000,0
-3624.0000,0
-3623.0000,0
-3622.0000,0
-3621.0000,0
-3620.0000,0
-3619.0000,0
-3618.0000,0
-3617.0000,0
-3616.0000,0
-3615.0000,0
-3614.0000,0
-3613.0000,0
-3612.0000,0
-3611.0000,0
-3610.0000,0
-3609.0000,0
-3608.0000,0
-3607.0000,0
-3606.0000,0
-3605.0000,0
-3604.0000,0
-3603.0000,0
-3602.0000,0
-3601.0000,0
-3600.0000,0
-3599.0000,0
-3598.0000,0
-3597.0000,0
-3596.0000,0
-3595.0000,0
-3594.0000,0
-3593.0000,0
-3592.0000,0
-3591.0000,0
-3590.0000,0
-3589.0000,0
-3588.0000,0
-3587.0000,0
-3586.0000,0
-3585.0000,0
-3584.0000,0
-3583.0000,0
-3582.0000,0
-3581.0000,0
-3580.0000,0
-3579.0000,0
-3578.0000,0
-3577.0000,0
-3576.0000,0
-3575.0000,0
-3574.0000,0
-3573.0000,0
-3572.0000,0
-3571.0000,0
-3570.0000,0
-3569.0000,0
-3568.0000,0
-3567.0000,0
-3566.0000,0
-3565.0000,0
-3564.0000,0
-3563.0000,0
-3562.0000,0
-3561.0000,0
-3560.0000,0
-3559.0000,0
-3558.0000,0
-3557.0000,0
-3556.0000,0
-3555.0000,0
-3554.0000,0
-3553.0000,0
-3552.0000,0
-3551.0000,0
-3550.0000,0
-3549.0000,0
-3548.0000,0
-3547.0000,0
-3546.0000,0
-3545.0000,0
-3544.0000,0
-3543.0000,0
-3542.0000,0
-3541.0000,0
-3540.0000,0
-3539.0000,0
-3538.0000,0
-3537.0000,0
-3536.0000,0
-3535.0000,0
-3534.0000,0
-3533.0000,0
-3532.0000,0
-3531.0000,0
-3530.0000,0
-3529.0000,0
-3528.0000,0
-3527.0000,0
-3526.0000,0
-3525.0000,0
-3524.0000,0
-3523.0000,0
-3522.0000,0
-3521.0000,0
-3520.0000,0
-3519.0000,0
-3518.0000,0
-3517.0000,0
-3516.0000,0
-3515.0000,0
-3514.0000,0
-3513.0000,0
-3512.0000,0
-3511.0000,0
-3510.0000,0
-3509.0000,0
-3508.0000,0
-3507.0000,0
-3506.0000,0
-3505.0000,0
-3504.0000,0
-3503.0000,0
-3502.0000,0
-3501.0000,0
-3500.0000,0
-3499.0000,0
-3498.0000,0
-3497.0000,0
-3496.0000,0
-3495.0000,0
-3494.0000,0
-3493.0000,0
-3492.0000,0
-3491.0000,0
-3490.0000,0
-3489.0000,0
-3488.0000,0
-3487.0000,0
-3486.0000,0
-3485.0000,0
-3484.0000,0
-3483.0000,0
-3482.0000,0
-3481.0000,0
-3480.0000,0
-3479.0000,0
-3478.0000,0
-3477.0000,0
-3476.0000,0
-3475.0000,0
-3474.0000,0
-3473.0000,0
-3472.0000,0
-3471.0000,0
-3470.0000,0
-3469.0000,0
-3468.0000,0
-3467.0000,0
-3466.0000,0
-3465.0000,0
-3464.0000,0
-3463.0000,0
-3462.0000,0
-3461.0000,0
-3460.0000,0
-3459.0000,0
-3458.0000,0
-3457.0000,0
-3456.0000,0
-3455.0000,0
-3454.0000,0
-3453.0000,0
-3452.0000,0
-3451.0000,0
-3450.0000,0
-3449.0000,0
-3448.0000,0
-3447.0000,0
-3446.0000,0
-3445.0000,0
-3444.0000,0
-3443.0000,0
-3442.0000,0
-3441.0000,0
-3440.0000,0
-3439.0000,0
-3438.0000,0
-3437.0000,0
-3436.0000,0
-3435.0000,0
-3434.0000,0
-3433.0000,0
-3432.0000,0
-3431.0000,0
-3430.0000,0
-3429.0000,0
-3428.0000,0
-3427.0000,0
-3426.0000,0
-3425.0000,0
-3424.0000,0
-3423.0000,0
-3422.0000,0
-3421.0000,0
-3420.0000,0
-3419.0000,0
-3418.0000,0
-3417.0000,0
-3416.0000,0
-3415.0000,0
-3414.0000,0
-3413.0000,0
-3412.0000,0
-3411.0000,0
-3410.0000,0
-3409.0000,0
-3408.0000,0
-3407.0000,0
-3406.0000,0
-3405.0000,0
-3404.0000,0
-3403.0000,0
-3402.0000,0
-3401.0000,0
-3400.0000,0
-3399.0000,0
-3398.0000,0
-3397.0000,0
-3396.0000,0
-3395.0000,0
-3394.0000,0
-3393.0000,0
-3392.0000,0
-3391.0000,0
-3390.0000,0
-3389.0000,0
-3388.0000,0
-3387.0000,0
-3386.0000,0
-3385.0000,0
-3384.0000,0
-3383.0000,0
-3382.0000,0
-3381.0000,0
-3380.0000,0
-3379.0000,0
-3378.0000,0
-3377.0000,0
-3376.0000,0
-3375.0000,0
-3374.0000,0
-3373.0000,0
-3372.0000,0
-3371.0000,0
-3370.0000,0
-3369.0000,0
-3368.0000,0
-3367.0000,0
-3366.0000,0
-3365.0000,0
-3364.0000,0
-3363.0000,0
-3362.0000,0
-3361.0000,0
-3360.0000,0
-3359.0000,0
-3358.0000,0
-3357.0000,0
-3356.0000,0
-3355.0000,0
-3354.0000,0
-3353.0000,0
-3352.0000,0
-3351.0000,0
-3350.0000,0
-3349.0000,0
-3348.0000,0
-3347.0000,0
-3346.0000,0
-3345.0000,0
-3344.0000,0
-3343.0000,0
-3342.0000,0
-3341.0000,0
-3340.0000,0
-3339.0000,0
-3338.0000,0
-3337.0000,0
-3336.0000,0
-3335.0000,0
-3334.0000,0
-3333.0000,0
-3332.0000,0
-3331.0000,0
-3330.0000,0.0173855
-3329.0000,0.0119024
-3328.0000,0.00601136
-3327.0000,0.000815723
-3326.0000,-0.00327502
-3325.0000,-0.00684843
-3324.0000,-0.0105474
-3323.0000,-0.0147715
-3322.0000,-0.0187656
-3321.0000,-0.0213997
-3320.0000,-0.0214431
-3319.0000,-0.0186766
-3318.0000,-0.0134189
-3317.0000,-0.0067106
-3316.0000,0.000699033
-3315.0000,0.00790104
-3314.0000,0.0141696
-3313.0000,0.0186958
-3312.0000,0.0212383
-3311.0000,0.0216986
-3310.0000,0.0203629
-3309.0000,0.017145
-3308.0000,0.012072
-3307.0000,0.00508777
-3306.0000,-0.00318768
-3305.0000,-0.0119267
-3304.0000,-0.0195653
-3303.0000,-0.0248633
-3302.0000,-0.026962
-3301.0000,-0.0260175
-3300.0000,-0.0223477
-3299.0000,-0.01664
-3298.0000,-0.00926013
-3297.0000,-0.000950237
-3296.0000,0.00752155
-3295.0000,0.0151382
-3294.0000,0.0211201
-3293.0000,0.024785
-3292.0000,0.0258753
-3291.0000,0.0242451
-3290.0000,0.0202441
-3289.0000,0.0142537
-3288.0000,0.00708802
-3287.0000,-0.000618801
-3286.0000,-0.00790987
-3285.0000,-0.0142147
-3284.0000,-0.0189555
-3283.0000,-0.0218064
-3282.0000,-0.0221556
-3281.0000,-0.0197624
-3280.0000,-0.014585
-3279.0000,-0.00749444
-3278.0000,0.000447185
-3277.0000,0.00787052
-3276.0000,0.0140335
-3275.0000,0.018299
-3274.0000,0.0206523
-3273.0000,0.0209733
-3272.0000,0.0193701
-3271.0000,0.0156637
-3270.0000,0.0100182
-3269.0000,0.00256817
-3268.0000,-0.00590657
-3267.0000,-0.014483
-3266.0000,-0.0217114
-3265.0000,-0.0262626
-3264.0000,-0.0268915
-3263.0000,-0.0234392
-3262.0000,-0.016575
-3261.0000,-0.00808075
-3260.0000,0.000465154
-3259.0000,0.00790519
-3258.0000,0.014059
-3257.0000,0.0188041
-3256.0000,0.0221624
-3255.0000,0.0235264
-3254.0000,0.0222693
-3253.0000,0.0176712
-3252.0000,0.00986801
-3251.0000,-0.000323178
-3250.0000,-0.0111486
-3249.0000,-0.020777
-3248.0000,-0.0273344
-3247.0000,-0.029711
-3246.0000,-0.0274203
-3245.0000,-0.0213924
-3244.0000,-0.0132135
-3243.0000,-0.00477766
-3242.0000,0.00312778
-3241.0000,0.0104029
-3240.0000,0.0175907
-3239.0000,0.0245892
-3238.0000,0.0306028
-3237.0000,0.0338362
-3236.0000,0.0328226
-3235.0000,0.0267558
-3234.0000,0.0165341
-3233.0000,0.0039987
-3232.0000,-0.00856092
-3231.0000,-0.0194327
-3230.0000,-0.0272598
-3229.0000,-0.0316377
-3228.0000,-0.0325731
-3227.0000,-0.0308725
-3226.0000,-0.0271831
-3225.0000,-0.0219989
-3224.0000,-0.0149048
-3223.0000,-0.00547379
-3222.0000,0.00641865
-3221.0000,0.0194658
-3220.0000,0.0313609
-3219.0000,0.0392083
-3218.0000,0.0412428
-3217.0000,0.0371555
-3216.0000,0.0285767
-3215.0000,0.0175261
-3214.0000,0.00583128
-3213.0000,-0.00565114
-3212.0000,-0.0162472
-3211.0000,-0.0255397
-3210.0000,-0.0328175
-3209.0000,-0.0375934
-3208.0000,-0.0392398
-3207.0000,-0.0373951
-3206.0000,-0.0314219
-3205.0000,-0.0213827
-3204.0000,-0.00799809
-3203.0000,0.00675483
-3202.0000,0.0203301
-3201.0000,0.0302586
-3200.0000,0.0354968
-3199.0000,0.036367
-3198.0000,0.0343492
-3197.0000,0.0304459
-3196.0000,0.0250825
-3195.0000,0.0178879
-3194.0000,0.00909155
-3193.0000,-0.000732718
-3192.0000,-0.0103631
-3191.0000,-0.0188812
-3190.0000,-0.0254612
-3189.0000,-0.0297316
-3188.0000,-0.0310844
-3187.0000,-0.0292447
-3186.0000,-0.0240579
-3185.0000,-0.016423
-3184.0000,-0.00769185
-3183.0000,0.000568644
-3182.0000,0.00778317
-3181.0000,0.0138883
-3180.0000,0.019359
-3179.0000,0.0238405
-3178.0000,0.0266369
-3177.0000,0.0267575
-3176.0000,0.0241059
-3175.0000,0.0191121
-3174.0000,0.0125847
-3173.0000,0.00486333
-3172.0000,-0.00356565
-3171.0000,-0.0122799
-3170.0000,-0.0200327
-3169.0000,-0.0254706
-3168.0000,-0.027457
-3167.0000,-0.0261501
-3166.0000,-0.0225954
-3165.0000,-0.0182948
-3164.0000,-0.0138459
-3163.0000,-0.00928639
-3162.0000,-0.00403966
-3161.0000,0.00189852
-3160.0000,0.00814379
-3159.0000,0.0138878
-3158.0000,0.0185808
-3157.0000,0.0215527
-3156.0000,0.0225268
-3155.0000,0.0208753
-3154.0000,0.0167409
-3153.0000,0.0108223
-3152.0000,0.00477358
-3151.0000,6.45802E-005
-3150.0000,-0.00263585
-3149.0000,-0.00430947
-3148.0000,-0.00645307
-3147.0000,-0.0102674
-3146.0000,-0.0152307
-3145.0000,-0.0197011
-3144.0000,-0.0214052
-3143.0000,-0.0192981
-3142.0000,-0.013449
-3141.0000,-0.00537488
-3140.0000,0.00319705
-3139.0000,0.0103787
-3138.0000,0.0151312
-3137.0000,0.017044
-3136.0000,0.0168176
-3135.0000,0.0156766
-3134.0000,0.0150534
-3133.0000,0.0152523
-3132.0000,0.0154227
-3131.0000,0.0136183
-3130.0000,0.00837007
-3129.0000,-0.000317248
-3128.0000,-0.010272
-3127.0000,-0.0185667
-3126.0000,-0.0225615
-3125.0000,-0.0217759
-3124.0000,-0.0174043
-3123.0000,-0.0120061
-3122.0000,-0.00771917
-3121.0000,-0.00575807
-3120.0000,-0.0056141
-3119.0000,-0.00601327
-3118.0000,-0.00504363
-3117.0000,-0.0016375
-3116.0000,0.00427034
-3115.0000,0.0111062
-3114.0000,0.016574
-3113.0000,0.018326
-3112.0000,0.0157361
-3111.0000,0.00996383
-3110.0000,0.00381201
-3109.0000,-0.000330606
-3108.0000,-0.00134791
-3107.0000,-0.000260513
-3106.0000,0.00086497
-3105.0000,-0.00013384
-3104.0000,-0.00393942
-3103.0000,-0.00965383
-3102.0000,-0.0149055
-3101.0000,-0.0174806
-3100.0000,-0.0158623
-3099.0000,-0.0103944
-3098.0000,-0.00272404
-3097.0000,0.00451163
-3096.0000,0.00913335
-3095.0000,0.0100457
-3094.0000,0.00824863
-3093.0000,0.00574769
-3092.0000,0.00488021
-3091.0000,0.00648296
-3090.0000,0.0099668
-3089.0000,0.0132269
-3088.0000,0.0142813
-3087.0000,0.0118709
-3086.0000,0.00648067
-3085.0000,-0.000171683
-3084.0000,-0.00577432
-3083.0000,-0.0089003
-3082.0000,-0.00918906
-3081.0000,-0.00786063
-3080.0000,-0.00658144
-3079.0000,-0.00701304
-3078.0000,-0.00957262
-3077.0000,-0.0133933
-3076.0000,-0.0163086
-3075.0000,-0.0164242
-3074.0000,-0.0126683
-3073.0000,-0.0057583
-3072.0000,0.0026258
-3071.0000,0.0101406
-3070.0000,0.0151972
-3069.0000,0.0170066
-3068.0000,0.0161746
-3067.0000,0.0138658
-3066.0000,0.0115274
-3065.0000,0.00967192
-3064.0000,0.00823763
-3063.0000,0.00626668
-3062.0000,0.00285959
-3061.0000,-0.00262268
-3060.0000,-0.00950415
-3059.0000,-0.0162983
-3058.0000,-0.0209656
-3057.0000,-0.0222909
-3056.0000,-0.0199931
-3055.0000,-0.0151272
-3054.0000,-0.00895341
-3053.0000,-0.00296691
-3052.0000,0.00203163
-3051.0000,0.00581248
-3050.0000,0.00897516
-3049.0000,0.012113
-3048.0000,0.0158734
-3047.0000,0.0200639
-3046.0000,0.0239579
-3045.0000,0.0260449
-3044.0000,0.0249878
-3043.0000,0.0198871
-3042.0000,0.0112654
-3041.0000,0.000730179
-3040.0000,-0.00945966
-3039.0000,-0.0177143
-3038.0000,-0.0231268
-3037.0000,-0.0259279
-3036.0000,-0.0265347
-3035.0000,-0.0256452
-3034.0000,-0.0233972
-3033.0000,-0.0198473
-3032.0000,-0.0144845
-3031.0000,-0.00699159
-3030.0000,0.00271993
-3029.0000,0.0136966
-3028.0000,0.0243569
-3027.0000,0.0323248
-3026.0000,0.0355801
-3025.0000,0.0329718
-3024.0000,0.0252295
-3023.0000,0.0144412
-3022.0000,0.0033213
-3021.0000,-0.00635359
-3020.0000,-0.013718
-3019.0000,-0.0191415
-3018.0000,-0.0231656
-3017.0000,-0.0264206
-3016.0000,-0.0287117
-3015.0000,-0.0293621
-3014.0000,-0.0270637
-3013.0000,-0.0211124
-3012.0000,-0.0114083
-3011.0000,0.000810988
-3010.0000,0.0136177
-3009.0000,0.0242874
-3008.0000,0.0306883
-3007.0000,0.0318746
-3006.0000,0.028946
-3005.0000,0.0238646
-3004.0000,0.018555
-3003.0000,0.013625
-3002.0000,0.00873004
-3001.0000,0.00275684
-3000.0000,-0.00490269
-2999.0000,-0.014132
-2998.0000,-0.0232423
-2997.0000,-0.0300114
-2996.0000,-0.0322145
-2995.0000,-0.0290112
-2994.0000,-0.0207398
-2993.0000,-0.00929449
-2992.0000,0.00285709
-2991.0000,0.0129345
-2990.0000,0.0193134
-2989.0000,0.0217724
-2988.0000,0.0216252
-2987.0000,0.0202935
-2986.0000,0.0186557
-2985.0000,0.0162507
-2984.0000,0.0121485
-2983.0000,0.00527602
-2982.0000,-0.00409662
-2981.0000,-0.0145238
-2980.0000,-0.02331
-2979.0000,-0.0280367
-2978.0000,-0.0272857
-2977.0000,-0.0215648
-2976.0000,-0.0125618
-2975.0000,-0.00280445
-2974.0000,0.00549865
-2973.0000,0.0107839
-2972.0000,0.0129817
-2971.0000,0.0130213
-2970.0000,0.0124849
-2969.0000,0.0121409
-2968.0000,0.0119572
-2967.0000,0.0107468
-2966.0000,0.00749447
-2965.0000,0.00171271
-2964.0000,-0.00555671
-2963.0000,-0.0124866
-2962.0000,-0.0166686
-2961.0000,-0.0168978
-2960.0000,-0.0131728
-2959.0000,-0.00713854
-2958.0000,-0.000666106
-2957.0000,0.00452622
-2956.0000,0.00776859
-2955.0000,0.00919938
-2954.0000,0.0097608
-2953.0000,0.0103128
-2952.0000,0.0113847
-2951.0000,0.0123954
-2950.0000,0.0123381
-2949.0000,0.00992433
-2948.0000,0.00489512
-2947.0000,-0.00225481
-2946.0000,-0.00974404
-2945.0000,-0.0155889
-2944.0000,-0.0181555
-2943.0000,-0.0172629
-2942.0000,-0.0137251
-2941.0000,-0.00911435
-2940.0000,-0.00452144
-2939.0000,-0.000607239
-2938.0000,0.00282341
-2937.0000,0.00595691
-2936.0000,0.00919336
-2935.0000,0.0120909
-2934.0000,0.0139411
-2933.0000,0.0135649
-2932.0000,0.0104007
-2931.0000,0.00448901
-2930.0000,-0.00304228
-2929.0000,-0.010549
-2928.0000,-0.0160935
-2927.0000,-0.0185551
-2926.0000,-0.0175489
-2925.0000,-0.0139823
-2924.0000,-0.00897277
-2923.0000,-0.00376505
-2922.0000,0.00113817
-2921.0000,0.00544897
-2920.0000,0.00922595
-2919.0000,0.0122444
-2918.0000,0.0141727
-2917.0000,0.0143201
-2916.0000,0.0122923
-2915.0000,0.0079558
-2914.0000,0.00214461
-2913.0000,-0.00401031
-2912.0000,-0.00898033
-2911.0000,-0.0117194
-2910.0000,-0.0117107
-2909.0000,-0.00948966
-2908.0000,-0.00588949
-2907.0000,-0.0020616
-2906.0000,0.0015269
-2905.0000,0.00474225
-2904.0000,0.0078435
-2903.0000,0.0107676
-2902.0000,0.0133423
-2901.0000,0.0147491
-2900.0000,0.0144259
-2899.0000,0.0118071
-2898.0000,0.00722208
-2897.0000,0.00124538
-2896.0000,-0.00487341
-2895.0000,-0.0100837
-2894.0000,-0.0134195
-2893.0000,-0.0148292
-2892.0000,-0.0146356
-2891.0000,-0.0136342
-2890.0000,-0.0122557
-2889.0000,-0.0105837
-2888.0000,-0.0078911
-2887.0000,-0.00369647
-2886.0000,0.00217523
-2885.0000,0.00880741
-2884.0000,0.0148743
-2883.0000,0.0188718
-2882.0000,0.0200024
-2881.0000,0.0179117
-2880.0000,0.0133444
-2879.0000,0.00712222
-2878.0000,0.000409898
-2877.0000,-0.00600459
-2876.0000,-0.0114399
-2875.0000,-0.0158227
-2874.0000,-0.0190463
-2873.0000,-0.0212019
-2872.0000,-0.0217889
-2871.0000,-0.0201961
-2870.0000,-0.0156702
-2869.0000,-0.00836153
-2868.0000,0.000853903
-2867.0000,0.00998763
-2866.0000,0.0172954
-2865.0000,0.0213863
-2864.0000,0.0222201
-2863.0000,0.0204933
-2862.0000,0.0174169
-2861.0000,0.0136962
-2860.0000,0.00987601
-2859.0000,0.00596143
-2858.0000,0.00198222
-2857.0000,-0.0023234
-2856.0000,-0.00682335
-2855.0000,-0.0113152
-2854.0000,-0.0148929
-2853.0000,-0.0167469
-2852.0000,-0.0161086
-2851.0000,-0.0131607
-2850.0000,-0.00871516
-2849.0000,-0.00431273
-2848.0000,-0.00104087
-2847.0000,0.000818498
-2846.0000,0.00212908
-2845.0000,0.00378292
-2844.0000,0.0064233
-2843.0000,0.00968446
-2842.0000,0.0128345
-2841.0000,0.0147553
-2840.0000,0.0146893
-2839.0000,0.0121977
-2838.0000,0.00756324
-2837.0000,0.00146179
-2836.0000,-0.00472835
-2835.0000,-0.00988323
-2834.0000,-0.0129759
-2833.0000,-0.0139289
-2832.0000,-0.0132692
-2831.0000,-0.0121661
-2830.0000,-0.0111039
-2829.0000,-0.0100925
-2828.0000,-0.00824295
-2827.0000,-0.00502225
-2826.0000,-0.000429569
-2825.0000,0.00455491
-2824.0000,0.00889315
-2823.0000,0.0114734
-2822.0000,0.0119909
-2821.0000,0.0105099
-2820.0000,0.00782579
-2819.0000,0.00476286
-2818.0000,0.00238165
-2817.0000,0.00118594
-2816.0000,0.00135938
-2815.0000,0.0022395
-2814.0000,0.00296588
-2813.0000,0.00248134
-2812.0000,0.000711531
-2811.0000,-0.00181005
-2810.0000,-0.00374514
-2809.0000,-0.00439766
-2808.0000,-0.00367181
-2807.0000,-0.00237508
-2806.0000,-0.00125023
-2805.0000,-0.000962031
-2804.0000,-0.00141377
-2803.0000,-0.00231913
-2802.0000,-0.00284807
-2801.0000,-0.00257525
-2800.0000,-0.00130203
-2799.0000,0.000646955
-2798.0000,0.00277959
-2797.0000,0.00421736
-2796.0000,0.00447722
-2795.0000,0.00330522
-2794.0000,0.00141151
-2793.0000,-0.000164067
-2792.0000,-0.000274357
-2791.0000,0.00114523
-2790.0000,0.00345326
-2789.0000,0.00526602
-2788.0000,0.00556152
-2787.0000,0.00373383
-2786.0000,0.000237791
-2785.0000,-0.00404691
-2784.0000,-0.00785765
-2783.0000,-0.0105676
-2782.0000,-0.0118261
-2781.0000,-0.0120289
-2780.0000,-0.0114474
-2779.0000,-0.0105038
-2778.0000,-0.00921719
-2777.0000,-0.00733701
-2776.0000,-0.00411126
-2775.0000,0.000757894
-2774.0000,0.00722981
-2773.0000,0.0140292
-2772.0000,0.01962
-2771.0000,0.0222937
-2770.0000,0.0213641
-2769.0000,0.0170384
-2768.0000,0.0106596
-2767.0000,0.00376231
-2766.0000,-0.00221183
-2765.0000,-0.00677245
-2764.0000,-0.00990624
-2763.0000,-0.0122672
-2762.0000,-0.014131
-2761.0000,-0.0156109
-2760.0000,-0.0161458
-2759.0000,-0.015104
-2758.0000,-0.0118121
-2757.0000,-0.00637594
-2756.0000,0.000492093
-2755.0000,0.00719583
-2754.0000,0.0123453
-2753.0000,0.0149351
-2752.0000,0.0151239
-2751.0000,0.0136104
-2750.0000,0.0116703
-2749.0000,0.0100197
-2748.0000,0.00888606
-2747.0000,0.00751652
-2746.0000,0.00506687
-2745.0000,0.000707539
-2744.0000,-0.00522493
-2743.0000,-0.0118311
-2742.0000,-0.0173927
-2741.0000,-0.0204855
-2740.0000,-0.0202032
-2739.0000,-0.0168439
-2738.0000,-0.0115135
-2737.0000,-0.0058441
-2736.0000,-0.000830713
-2735.0000,0.00304701
-2734.0000,0.00622327
-2733.0000,0.00914921
-2732.0000,0.012216
-2731.0000,0.0150346
-2730.0000,0.0168168
-2729.0000,0.0163286
-2728.0000,0.0130249
-2727.0000,0.00703636
-2726.0000,-0.000271036
-2725.0000,-0.00715601
-2724.0000,-0.0118175
-2723.0000,-0.0133469
-2722.0000,-0.0117847
-2721.0000,-0.00851225
-2720.0000,-0.00504633
-2719.0000,-0.00268677
-2718.0000,-0.00140399
-2717.0000,-0.000583826
-2716.0000,0.000959382
-2715.0000,0.00361849
-2714.0000,0.00718381
-2713.0000,0.0105289
-2712.0000,0.0123946
-2711.0000,0.0117239
-2710.0000,0.00861594
-2709.0000,0.00389397
-2708.0000,-0.000810532
-2707.0000,-0.00426541
-2706.0000,-0.00565875
-2705.0000,-0.00541446
-2704.0000,-0.00458811
-2703.0000,-0.0046693
-2702.0000,-0.00629744
-2701.0000,-0.00917852
-2700.0000,-0.0116008
-2699.0000,-0.0119156
-2698.0000,-0.00892585
-2697.0000,-0.00311817
-2696.0000,0.00391877
-2695.0000,0.00994478
-2694.0000,0.0133681
-2693.0000,0.0135692
-2692.0000,0.0112964
-2691.0000,0.00776572
-2690.0000,0.0043602
-2689.0000,0.00156227
-2688.0000,-0.000672752
-2687.0000,-0.00318257
-2686.0000,-0.00661176
-2685.0000,-0.011286
-2684.0000,-0.0162365
-2683.0000,-0.01989
-2682.0000,-0.0202681
-2681.0000,-0.0164131
-2680.0000,-0.00877999
-2679.0000,0.000486687
-2678.0000,0.00889107
-2677.0000,0.0143708
-2676.0000,0.0166184
-2675.0000,0.016455
-2674.0000,0.0155789
-2673.0000,0.0149998
-2672.0000,0.0149305
-2671.0000,0.0144415
-2670.0000,0.012441
-2669.0000,0.00806171
-2668.0000,0.00152861
-2667.0000,-0.00619006
-2666.0000,-0.0133122
-2665.0000,-0.0181406
-2664.0000,-0.0194594
-2663.0000,-0.0175727
-2662.0000,-0.0137142
-2661.0000,-0.00992274
-2660.0000,-0.00738956
-2659.0000,-0.00607151
-2658.0000,-0.00445106
-2657.0000,-0.000926812
-2656.0000,0.00537928
-2655.0000,0.0134724
-2654.0000,0.0212078
-2653.0000,0.0259877
-2652.0000,0.0264002
-2651.0000,0.0223213
-2650.0000,0.0151891
-2649.0000,0.00675851
-2648.0000,-0.00107826
-2647.0000,-0.00739112
-2646.0000,-0.011968
-2645.0000,-0.0156229
-2644.0000,-0.0190357
-2643.0000,-0.0227666
-2642.0000,-0.0260088
-2641.0000,-0.0272564
-2640.0000,-0.0245888
-2639.0000,-0.017313
-2638.0000,-0.0063557
-2637.0000,0.00546492
-2636.0000,0.0153121
-2635.0000,0.0211996
-2634.0000,0.02309
-2633.0000,0.0222138
-2632.0000,0.0203779
-2631.0000,0.0186485
-2630.0000,0.0172035
-2629.0000,0.0150764
-2628.0000,0.0113285
-2627.0000,0.00526577
-2626.0000,-0.00281205
-2625.0000,-0.011945
-2624.0000,-0.0202184
-2623.0000,-0.0257158
-2622.0000,-0.0269048
-2621.0000,-0.0238991
-2620.0000,-0.0181101
-2619.0000,-0.0117523
-2618.0000,-0.00618868
-2617.0000,-0.00170645
-2616.0000,0.00271235
-2615.0000,0.00802865
-2614.0000,0.0146176
-2613.0000,0.0212516
-2612.0000,0.0260343
-2611.0000,0.0270445
-2610.0000,0.0236813
-2609.0000,0.0164454
-2608.0000,0.00698295
-2607.0000,-0.00299874
-2606.0000,-0.0114883
-2605.0000,-0.017264
-2604.0000,-0.0197172
-2603.0000,-0.0195355
-2602.0000,-0.0177115
-2601.0000,-0.0154533
-2600.0000,-0.0129521
-2599.0000,-0.00988466
-2598.0000,-0.00549635
-2597.0000,0.000228327
-2596.0000,0.00649077
-2595.0000,0.0114289
-2594.0000,0.0135959
-2593.0000,0.0122956
-2592.0000,0.0085523
-2591.0000,0.0038587
-2590.0000,-0.000151588
-2589.0000,-0.00267909
-2588.0000,-0.00331201
-2587.0000,-0.00232535
-2586.0000,-0.000127258
-2585.0000,0.00237345
-2584.0000,0.00449445
-2583.0000,0.00569013
-2582.0000,0.00608888
-2581.0000,0.00586948
-2580.0000,0.00551103
-2579.0000,0.00482342
-2578.0000,0.00347497
-2577.0000,0.000822813
-2576.0000,-0.00314788
-2575.0000,-0.00776565
-2574.0000,-0.0115314
-2573.0000,-0.0134314
-2572.0000,-0.0130224
-2571.0000,-0.0108297
-2570.0000,-0.00726401
-2569.0000,-0.00290551
-2568.0000,0.00202283
-2567.0000,0.00695067
-2566.0000,0.0115781
-2565.0000,0.0153386
-2564.0000,0.0179027
-2563.0000,0.0188169
-2562.0000,0.0180401
-2561.0000,0.0153877
-2560.0000,0.0108868
-2559.0000,0.00446331
-2558.0000,-0.00327294
-2557.0000,-0.0113671
-2556.0000,-0.0184838
-2555.0000,-0.0239263
-2554.0000,-0.0272497
-2553.0000,-0.0283449
-2552.0000,-0.0267185
-2551.0000,-0.0222767
-2550.0000,-0.0150979
-2549.0000,-0.0059864
-2548.0000,0.00403948
-2547.0000,0.013498
-2546.0000,0.0212859
-2545.0000,0.0264193
-2544.0000,0.0288002
-2543.0000,0.0282368
-2542.0000,0.0248189
-2541.0000,0.0185783
-2540.0000,0.0101418
-2539.0000,0.000475542
-2538.0000,-0.00916023
-2537.0000,-0.0177697
-2536.0000,-0.0241926
-2535.0000,-0.0275796
-2534.0000,-0.0272525
-2533.0000,-0.0234098
-2532.0000,-0.0168163
-2531.0000,-0.00889472
-2530.0000,-0.000803353
-2529.0000,0.00634647
-2528.0000,0.0122174
-2527.0000,0.0167227
-2526.0000,0.0201218
-2525.0000,0.0220966
-2524.0000,0.0222506
-2523.0000,0.0200497
-2522.0000,0.0157032
-2521.0000,0.00975258
-2520.0000,0.00330317
-2519.0000,-0.00280934
-2518.0000,-0.0075905
-2517.0000,-0.0107193
-2516.0000,-0.0122115
-2515.0000,-0.0128066
-2514.0000,-0.0131166
-2513.0000,-0.0135842
-2512.0000,-0.0137505
-2511.0000,-0.0129727
-2510.0000,-0.0103463
-2509.0000,-0.00578709
-2508.0000,0.000162085
-2507.0000,0.00604455
-2506.0000,0.0105501
-2505.0000,0.0127828
-2504.0000,0.012991
-2503.0000,0.0117458
-2502.0000,0.00998505
-2501.0000,0.00809889
-2500.0000,0.0062278
-2499.0000,0.00395261
-2498.0000,0.000860507
-2497.0000,-0.00341323
-2496.0000,-0.00840357
-2495.0000,-0.0131249
-2494.0000,-0.0160292
-2493.0000,-0.0161297
-2492.0000,-0.0131206
-2491.0000,-0.00813038
-2490.0000,-0.00269754
-2489.0000,0.00149849
-2488.0000,0.0039079
-2487.0000,0.00490048
-2486.0000,0.00568097
-2485.0000,0.0071467
-2484.0000,0.00952719
-2483.0000,0.0119886
-2482.0000,0.013586
-2481.0000,0.0132397
-2480.0000,0.0107828
-2479.0000,0.00647823
-2478.0000,0.0014144
-2477.0000,-0.00321954
-2476.0000,-0.0063201
-2475.0000,-0.00779033
-2474.0000,-0.00812505
-2473.0000,-0.00842313
-2472.0000,-0.00924881
-2471.0000,-0.0106274
-2470.0000,-0.0113591
-2469.0000,-0.0102294
-2468.0000,-0.00635698
-2467.0000,-0.000350054
-2466.0000,0.00630774
-2465.0000,0.0115408
-2464.0000,0.0141857
-2463.0000,0.0138302
-2462.0000,0.0112902
-2461.0000,0.00760121
-2460.0000,0.00391959
-2459.0000,0.000708581
-2458.0000,-0.00198409
-2457.0000,-0.00471757
-2456.0000,-0.00772037
-2455.0000,-0.0110372
-2454.0000,-0.0139369
-2453.0000,-0.0153884
-2452.0000,-0.0142243
-2451.0000,-0.0102124
-2450.0000,-0.00402096
-2449.0000,0.00238838
-2448.0000,0.00726551
-2447.0000,0.00937418
-2446.0000,0.00906586
-2445.0000,0.00742552
-2444.0000,0.00595394
-2443.0000,0.00534959
-2442.0000,0.00559599
-2441.0000,0.00580059
-2440.0000,0.0052512
-2439.0000,0.00344283
-2438.0000,0.000798643
-2437.0000,-0.00199927
-2436.0000,-0.00383607
-2435.0000,-0.00424239
-2434.0000,-0.00306638
-2433.0000,-0.00110531
-2432.0000,0.000691823
-2431.0000,0.00130183
-2430.0000,0.000515024
-2429.0000,-0.00111127
-2428.0000,-0.00227288
-2427.0000,-0.00204517
-2426.0000,-6.50265E-005
-2425.0000,0.00278757
-2424.0000,0.00523007
-2423.0000,0.00594513
-2422.0000,0.00468053
-2421.0000,0.00192297
-2420.0000,-0.000934943
-2419.0000,-0.00286829
-2418.0000,-0.00327861
-2417.0000,-0.00259474
-2416.0000,-0.00143216
-2415.0000,-0.000668185
-2414.0000,-0.000635238
-2413.0000,-0.0014072
-2412.0000,-0.00233745
-2411.0000,-0.00290227
-2410.0000,-0.00250659
-2409.0000,-0.0014168
-2408.0000,-0.000130178
-2407.0000,0.00038502
-2406.0000,-0.0004108
-2405.0000,-0.0025881
-2404.0000,-0.00524576
-2403.0000,-0.00726345
-2402.0000,-0.00743774
-2401.0000,-0.00563377
-2400.0000,-0.00235246
-2399.0000,0.00123166
-2398.0000,0.00426466
-2397.0000,0.00612082
-2396.0000,0.00699753
-2395.0000,0.00706631
-2394.0000,0.00678035
-2393.0000,0.00604257
-2392.0000,0.00491576
-2391.0000,0.00317999
-2390.0000,0.00101096
-2389.0000,-0.00148851
-2388.0000,-0.00382551
-2387.0000,-0.00567097
-2386.0000,-0.00645006
-2385.0000,-0.00588669
-2384.0000,-0.00392949
-2383.0000,-0.001163
-2382.0000,0.00174654
-2381.0000,0.00395972
-2380.0000,0.00515829
-2379.0000,0.00533657
-2378.0000,0.00495174
-2377.0000,0.00416772
-2376.0000,0.00316694
-2375.0000,0.00170343
-2374.0000,2.21589E-005
-2373.0000,-0.00167186
-2372.0000,-0.00273941
-2371.0000,-0.00307511
-2370.0000,-0.00274643
-2369.0000,-0.0022777
-2368.0000,-0.00191824
-2367.0000,-0.00184171
-2366.0000,-0.00174009
-2365.0000,-0.00148473
-2364.0000,-0.00080559
-2363.0000,7.16989E-007
-2362.0000,0.000831362
-2361.0000,0.00134123
-2360.0000,0.00149706
-2359.0000,0.001037
-2358.0000,5.59489E-005
-2357.0000,-0.00146956
-2356.0000,-0.00300057
-2355.0000,-0.00404731
-2354.0000,-0.00413756
-2353.0000,-0.00366404
-2352.0000,-0.00303662
-2351.0000,-0.00285863
-2350.0000,-0.00295986
-2349.0000,-0.00291736
-2348.0000,-0.00171539
-2347.0000,0.00101911
-2346.0000,0.00516252
-2345.0000,0.00951393
-2344.0000,0.012779
-2343.0000,0.0139487
-2342.0000,0.0128462
-2341.0000,0.00961501
-2340.0000,0.00499545
-2339.0000,-0.00019283
-2338.0000,-0.004903
-2337.0000,-0.00853869
-2336.0000,-0.010812
-2335.0000,-0.0121595
-2334.0000,-0.0127481
-2333.0000,-0.0126357
-2332.0000,-0.0113297
-2331.0000,-0.00834802
-2330.0000,-0.00320518
-2329.0000,0.00350998
-2328.0000,0.0105774
-2327.0000,0.0160318
-2326.0000,0.0185878
-2325.0000,0.0178462
-2324.0000,0.0145444
-2323.0000,0.0095822
-2322.0000,0.00415984
-2321.0000,-0.000991886
-2320.0000,-0.00522091
-2319.0000,-0.00866629
-2318.0000,-0.0114557
-2317.0000,-0.013793
-2316.0000,-0.0153799
-2315.0000,-0.0158971
-2314.0000,-0.0147474
-2313.0000,-0.0117543
-2312.0000,-0.00694642
-2311.0000,-0.00128206
-2310.0000,0.00409192
-2309.0000,0.00791115
-2308.0000,0.00999382
-2307.0000,0.010665
-2306.0000,0.0106847
-2305.0000,0.0104449
-2304.0000,0.0101484
-2303.0000,0.00937887
-2302.0000,0.00780724
-2301.0000,0.00493129
-2300.0000,0.00100708
-2299.0000,-0.00341707
-2298.0000,-0.00731868
-2297.0000,-0.0100037
-2296.0000,-0.0108922
-2295.0000,-0.0100215
-2294.0000,-0.0075984
-2293.0000,-0.00452428
-2292.0000,-0.00145075
-2291.0000,0.00109469
-2290.0000,0.0032161
-2289.0000,0.00494933
-2288.0000,0.00647939
-2287.0000,0.00756336
-2286.0000,0.00806022
-2285.0000,0.00751872
-2284.0000,0.00581993
-2283.0000,0.00304887
-2282.0000,2.7013E-005
-2281.0000,-0.00248679
-2280.0000,-0.00375615
-2279.0000,-0.00368617
-2278.0000,-0.00243779
-2277.0000,-0.000729334
-2276.0000,0.000853057
-2275.0000,0.00162988
-2274.0000,0.00146612
-2273.0000,0.000301821
-2272.0000,-0.0015091
-2271.0000,-0.00378951
-2270.0000,-0.00598667
-2269.0000,-0.00783371
-2268.0000,-0.00891336
-2267.0000,-0.00923357
-2266.0000,-0.00874441
-2265.0000,-0.00747698
-2264.0000,-0.00514886
-2263.0000,-0.00189636
-2262.0000,0.00222663
-2261.0000,0.00660207
-2260.0000,0.0105262
-2259.0000,0.0131632
-2258.0000,0.0141246
-2257.0000,0.0132049
-2256.0000,0.0107231
-2255.0000,0.00693292
-2254.0000,0.00245177
-2253.0000,-0.00228651
-2252.0000,-0.00648728
-2251.0000,-0.00965948
-2250.0000,-0.0114015
-2249.0000,-0.0120117
-2248.0000,-0.0116902
-2247.0000,-0.0107732
-2246.0000,-0.00903875
-2245.0000,-0.00637705
-2244.0000,-0.00259198
-2243.0000,0.00196225
-2242.0000,0.00687127
-2241.0000,0.0113262
-2240.0000,0.0148551
-2239.0000,0.0169331
-2238.0000,0.0175211
-2237.0000,0.0164095
-2236.0000,0.013736
-2235.0000,0.0097168
-2234.0000,0.0049304
-2233.0000,-0.00025605
-2232.0000,-0.00544165
-2231.0000,-0.010688
-2230.0000,-0.0156236
-2229.0000,-0.0197627
-2228.0000,-0.0220447
-2227.0000,-0.0216767
-2226.0000,-0.0182551
-2225.0000,-0.0123094
-2224.0000,-0.00475729
-2223.0000,0.00293408
-2222.0000,0.00976659
-2221.0000,0.0148606
-2220.0000,0.0179407
-2219.0000,0.018735
-2218.0000,0.0175068
-2217.0000,0.0145107
-2216.0000,0.0103585
-2215.0000,0.00537758
-2214.0000,-8.52236E-005
-2213.0000,-0.00581896
-2212.0000,-0.0111443
-2211.0000,-0.0153145
-2210.0000,-0.0173453
-2209.0000,-0.0168489
-2208.0000,-0.0138296
-2207.0000,-0.00923366
-2206.0000,-0.00407495
-2205.0000,0.000512132
-2204.0000,0.00412135
-2203.0000,0.00652832
-2202.0000,0.00805931
-2201.0000,0.00881742
-2200.0000,0.00920389
-2199.0000,0.00922658
-2198.0000,0.00894633
-2197.0000,0.00801106
-2196.0000,0.00630456
-2195.0000,0.00374238
-2194.0000,0.000774984
-2193.0000,-0.00214405
-2192.0000,-0.00426767
-2191.0000,-0.0054044
-2190.0000,-0.00546033
-2189.0000,-0.00494279
-2188.0000,-0.00421006
-2187.0000,-0.00365299
-2186.0000,-0.00309952
-2185.0000,-0.00253237
-2184.0000,-0.00154908
-2183.0000,-0.000155337
-2182.0000,0.00160751
-2181.0000,0.00315738
-2180.0000,0.00395464
-2179.0000,0.0034151
-2178.0000,0.00162136
-2177.0000,-0.00108006
-2176.0000,-0.00375785
-2175.0000,-0.00565928
-2174.0000,-0.00600865
-2173.0000,-0.00474055
-2172.0000,-0.00215982
-2171.0000,0.000877367
-2170.0000,0.00365559
-2169.0000,0.00535367
-2168.0000,0.00592285
-2167.0000,0.00545681
-2166.0000,0.00461516
-2165.0000,0.00373324
-2164.0000,0.00283298
-2163.0000,0.00128152
-2162.0000,-0.00124681
-2161.0000,-0.0047751
-2160.0000,-0.00841854
-2159.0000,-0.0111609
-2158.0000,-0.0117212
-2157.0000,-0.009712
-2156.0000,-0.00528847
-2155.0000,0.00039714
-2154.0000,0.00611811
-2153.0000,0.0104352
-2152.0000,0.0126417
-2151.0000,0.012481
-2150.0000,0.0107023
-2149.0000,0.00839413
-2148.0000,0.00671373
-2147.0000,0.00570729
-2146.0000,0.00477968
-2145.0000,0.0026617
-2144.0000,-0.00104491
-2143.0000,-0.0058387
-2142.0000,-0.010169
-2141.0000,-0.0125889
-2140.0000,-0.0122149
-2139.0000,-0.00959403
-2138.0000,-0.00585411
-2137.0000,-0.00258016
-2136.0000,-0.000568528
-2135.0000,-0.000170238
-2134.0000,-0.000732911
-2133.0000,-0.0012861
-2132.0000,-0.000447531
-2131.0000,0.00233619
-2130.0000,0.00677037
-2129.0000,0.0109972
-2128.0000,0.0129225
-2127.0000,0.011023
-2126.0000,0.00578944
-2125.0000,-0.00093607
-2124.0000,-0.0065996
-2123.0000,-0.00969964
-2122.0000,-0.0100812
-2121.0000,-0.00916597
-2120.0000,-0.00839385
-2119.0000,-0.00855862
-2118.0000,-0.00925658
-2117.0000,-0.00962146
-2116.0000,-0.0082727
-2115.0000,-0.00456585
-2114.0000,0.00157551
-2113.0000,0.00892334
-2112.0000,0.015517
-2111.0000,0.0188705
-2110.0000,0.0177015
-2109.0000,0.012399
-2108.0000,0.00540056
-2107.0000,-0.000499654
-2106.0000,-0.00326685
-2105.0000,-0.00311537
-2104.0000,-0.00170363
-2103.0000,-0.00120971
-2102.0000,-0.00253306
-2101.0000,-0.00526812
-2100.0000,-0.00776831
-2099.0000,-0.00860339
-2098.0000,-0.0069175
-2097.0000,-0.00309501
-2096.0000,0.00192651
-2095.0000,0.00644776
-2094.0000,0.00900718
-2093.0000,0.00863913
-2092.0000,0.00597836
-2091.0000,0.00264608
-2090.0000,0.000838614
-2089.0000,0.00152748
-2088.0000,0.0040983
-2087.0000,0.00622439
-2086.0000,0.00571305
-2085.0000,0.00166559
-2084.0000,-0.00469066
-2083.0000,-0.011034
-2082.0000,-0.015
-2081.0000,-0.0156674
-2080.0000,-0.0131865
-2079.0000,-0.00878831
-2078.0000,-0.00375976
-2077.0000,0.000569195
-2076.0000,0.00360556
-2075.0000,0.00524185
-2074.0000,0.00631131
-2073.0000,0.00757765
-2072.0000,0.00953992
-2071.0000,0.0113413
-2070.0000,0.0115094
-2069.0000,0.00843872
-2068.0000,0.00209992
-2067.0000,-0.005991
-2066.0000,-0.0131404
-2065.0000,-0.017273
-2064.0000,-0.0174503
-2063.0000,-0.0143788
-2062.0000,-0.00925523
-2061.0000,-0.00349644
-2060.0000,0.00211046
-2059.0000,0.00686086
-2058.0000,0.0105998
-2057.0000,0.0131163
-2056.0000,0.0146541
-2055.0000,0.0152705
-2054.0000,0.0149188
-2053.0000,0.0129757
-2052.0000,0.00910901
-2051.0000,0.0032537
-2050.0000,-0.00334887
-2049.0000,-0.00927307
-2048.0000,-0.0132464
-2047.0000,-0.0151785
-2046.0000,-0.0157253
-2045.0000,-0.0149405
-2044.0000,-0.0131106
-2043.0000,-0.0100628
-2042.0000,-0.00549828
-2041.0000,9.60617E-005
-2040.0000,0.00605589
-2039.0000,0.0113738
-2038.0000,0.0156331
-2037.0000,0.0184667
-2036.0000,0.0198231
-2035.0000,0.0192376
-2034.0000,0.0164817
-2033.0000,0.0114693
-2032.0000,0.00473148
-2031.0000,-0.00331694
-2030.0000,-0.0120735
-2029.0000,-0.0210171
-2028.0000,-0.0287428
-2027.0000,-0.0335941
-2026.0000,-0.033792
-2025.0000,-0.0288522
-2024.0000,-0.0194885
-2023.0000,-0.00776273
-2022.0000,0.00436945
-2021.0000,0.0152348
-2020.0000,0.0243918
-2019.0000,0.031544
-2018.0000,0.0363821
-2017.0000,0.0378874
-2016.0000,0.0352647
-2015.0000,0.0279863
-2014.0000,0.0165864
-2013.0000,0.00206567
-2012.0000,-0.013622
-2011.0000,-0.0280808
-2010.0000,-0.038485
-2009.0000,-0.0429343
-2008.0000,-0.0408597
-2007.0000,-0.0337331
-2006.0000,-0.0236714
-2005.0000,-0.0129333
-2004.0000,-0.00233822
-2003.0000,0.00816633
-2002.0000,0.0191588
-2001.0000,0.0301586
-2000.0000,0.0396671
-1999.0000,0.0452207
-1998.0000,0.045058
-1997.0000,0.0385569
-1996.0000,0.026782
-1995.0000,0.0115241
-1994.0000,-0.00461622
-1993.0000,-0.0192492
-1992.0000,-0.0304591
-1991.0000,-0.0378391
-1990.0000,-0.0418582
-1989.0000,-0.0436278
-1988.0000,-0.0432669
-1987.0000,-0.0399185
-1986.0000,-0.0318606
-1985.0000,-0.0180931
-1984.0000,0.000709838
-1983.0000,0.0214642
-1982.0000,0.0400417
-1981.0000,0.0525237
-1980.0000,0.0572394
-1979.0000,0.0542847
-1978.0000,0.0453318
-1977.0000,0.03227
-1976.0000,0.0170452
-1975.0000,0.000978837
-1974.0000,-0.0150221
-1973.0000,-0.0305753
-1972.0000,-0.0447834
-1971.0000,-0.0561064
-1970.0000,-0.0618926
-1969.0000,-0.0597641
-1968.0000,-0.0484326
-1967.0000,-0.0291333
-1966.0000,-0.00534927
-1965.0000,0.0179558
-1964.0000,0.0367795
-1963.0000,0.0490367
-1962.0000,0.0550952
-1961.0000,0.056099
-1960.0000,0.053259
-1959.0000,0.0467894
-1958.0000,0.0367865
-1957.0000,0.0230459
-1956.0000,0.00606713
-1955.0000,-0.0129558
-1954.0000,-0.0316284
-1953.0000,-0.047126
-1952.0000,-0.0565341
-1951.0000,-0.0584122
-1950.0000,-0.0528477
-1949.0000,-0.0420651
-1948.0000,-0.0287726
-1947.0000,-0.0153378
-1946.0000,-0.00222646
-1945.0000,0.0110548
-1944.0000,0.0251215
-1943.0000,0.0389165
-1942.0000,0.050295
-1941.0000,0.0564182
-1940.0000,0.0555317
-1939.0000,0.0471933
-1938.0000,0.0328462
-1937.0000,0.0147479
-1936.0000,-0.00422224
-1935.0000,-0.0216083
-1934.0000,-0.0355868
-1933.0000,-0.0456027
-1932.0000,-0.0515964
-1931.0000,-0.0540354
-1930.0000,-0.0527061
-1929.0000,-0.0467733
-1928.0000,-0.0349703
-1927.0000,-0.0173683
-1926.0000,0.00395321
-1925.0000,0.0249161
-1924.0000,0.0415166
-1923.0000,0.0509549
-1922.0000,0.0530276
-1921.0000,0.0491747
-1920.0000,0.0416819
-1919.0000,0.0322413
-1918.0000,0.0219078
-1917.0000,0.0107316
-1916.0000,-0.00105663
-1915.0000,-0.0132035
-1914.0000,-0.0247923
-1913.0000,-0.0345392
-1912.0000,-0.040513
-1911.0000,-0.0411665
-1910.0000,-0.0358526
-1909.0000,-0.0261015
-1908.0000,-0.0146496
-1907.0000,-0.00454045
-1906.0000,0.00300458
-1905.0000,0.00849899
-1904.0000,0.0139038
-1903.0000,0.0204146
-1902.0000,0.0278029
-1901.0000,0.0338583
-1900.0000,0.0361633
-1899.0000,0.0330255
-1898.0000,0.0247558
-1897.0000,0.0129565
-1896.0000,0.000211462
-1895.0000,-0.0112168
-1894.0000,-0.019473
-1893.0000,-0.0240349
-1892.0000,-0.0255691
-1891.0000,-0.0257644
-1890.0000,-0.0258574
-1889.0000,-0.0260223
-1888.0000,-0.0246174
-1887.0000,-0.0197558
-1886.0000,-0.0103213
-1885.0000,0.00218476
-1884.0000,0.0144934
-1883.0000,0.02266
-1882.0000,0.0247101
-1881.0000,0.0210466
-1880.0000,0.0145141
-1879.0000,0.00807181
-1878.0000,0.00396078
-1877.0000,0.00259559
-1876.0000,0.00328492
-1875.0000,0.0042719
-1874.0000,0.00405352
-1873.0000,0.0016747
-1872.0000,-0.00234961
-1871.0000,-0.00648648
-1870.0000,-0.00862633
-1869.0000,-0.00781444
-1868.0000,-0.00460894
-1867.0000,-0.00149298
-1866.0000,-0.000961506
-1865.0000,-0.00421463
-1864.0000,-0.00966416
-1863.0000,-0.0142345
-1862.0000,-0.0148386
-1861.0000,-0.0105331
-1860.0000,-0.00252878
-1859.0000,0.00639994
-1858.0000,0.0136423
-1857.0000,0.0174858
-1856.0000,0.0179362
-1855.0000,0.0160114
-1854.0000,0.0135472
-1853.0000,0.0118377
-1852.0000,0.0115121
-1851.0000,0.0116257
-1850.0000,0.0104624
-1849.0000,0.00615262
-1848.0000,-0.00165963
-1847.0000,-0.0115962
-1846.0000,-0.0205878
-1845.0000,-0.0260183
-1844.0000,-0.0268363
-1843.0000,-0.0242787
-1842.0000,-0.0204615
-1841.0000,-0.0173026
-1840.0000,-0.0149548
-1839.0000,-0.0123936
-1838.0000,-0.00781713
-1837.0000,-0.000271634
-1836.0000,0.0101456
-1835.0000,0.021798
-1834.0000,0.0324246
-1833.0000,0.039498
-1832.0000,0.0413172
-1831.0000,0.0371795
-1830.0000,0.0282323
-1829.0000,0.016422
-1828.0000,0.00410133
-1827.0000,-0.00760687
-1826.0000,-0.0184904
-1825.0000,-0.0289314
-1824.0000,-0.0384987
-1823.0000,-0.0457174
-1822.0000,-0.0481902
-1821.0000,-0.0442345
-1820.0000,-0.0334459
-1819.0000,-0.0175364
-1818.0000,0.000698553
-1817.0000,0.0179909
-1816.0000,0.0321321
-1815.0000,0.0417998
-1814.0000,0.0469493
-1813.0000,0.0479538
-1812.0000,0.0456364
-1811.0000,0.0402973
-1810.0000,0.0319671
-1809.0000,0.02016
-1808.0000,0.00509198
-1807.0000,-0.0121466
-1806.0000,-0.0289849
-1805.0000,-0.0426118
-1804.0000,-0.0506672
-1803.0000,-0.05256
-1802.0000,-0.0490971
-1801.0000,-0.0421984
-1800.0000,-0.0332853
-1799.0000,-0.0230394
-1798.0000,-0.0110255
-1797.0000,0.00286624
-1796.0000,0.0183722
-1795.0000,0.03395
-1794.0000,0.0474777
-1793.0000,0.0562711
-1792.0000,0.0582661
-1791.0000,0.0525441
-1790.0000,0.0400858
-1789.0000,0.0230997
-1788.0000,0.00465888
-1787.0000,-0.0128915
-1786.0000,-0.0280483
-1785.0000,-0.0406508
-1784.0000,-0.0505532
-1783.0000,-0.0572348
-1782.0000,-0.0589577
-1781.0000,-0.0540434
-1780.0000,-0.0416164
-1779.0000,-0.0228734
-1778.0000,-0.000507709
-1777.0000,0.0216366
-1776.0000,0.0401529
-1775.0000,0.052376
-1774.0000,0.0574996
-1773.0000,0.0560867
-1772.0000,0.050015
-1771.0000,0.0410128
-1770.0000,0.0303938
-1769.0000,0.0182493
-1768.0000,0.00434763
-1767.0000,-0.011476
-1766.0000,-0.0278868
-1765.0000,-0.0422291
-1764.0000,-0.0512225
-1763.0000,-0.0528044
-1762.0000,-0.0468874
-1761.0000,-0.0357106
-1760.0000,-0.0221393
-1759.0000,-0.00883082
-1758.0000,0.00292738
-1757.0000,0.012836
-1756.0000,0.0214962
-1755.0000,0.0292724
-1754.0000,0.0361648
-1753.0000,0.0409961
-1752.0000,0.0422625
-1751.0000,0.0381681
-1750.0000,0.0280484
-1749.0000,0.0126766
-1748.0000,-0.00503076
-1747.0000,-0.0212999
-1746.0000,-0.0327194
-1745.0000,-0.0380876
-1744.0000,-0.0382615
-1743.0000,-0.0354011
-1742.0000,-0.0310299
-1741.0000,-0.0257149
-1740.0000,-0.0187308
-1739.0000,-0.00948635
-1738.0000,0.00202054
-1737.0000,0.0143002
-1736.0000,0.0252193
-1735.0000,0.032405
-1734.0000,0.0343381
-1733.0000,0.0304546
-1732.0000,0.0217924
-1731.0000,0.0105564
-1730.0000,6.74786E-005
-1729.0000,-0.00703568
-1728.0000,-0.00956215
-1727.0000,-0.00880182
-1726.0000,-0.00706008
-1725.0000,-0.00647548
-1724.0000,-0.0074193
-1723.0000,-0.00883266
-1722.0000,-0.00881351
-1721.0000,-0.00645456
-1720.0000,-0.0021505
-1719.0000,0.00223701
-1718.0000,0.0050831
-1717.0000,0.00530742
-1716.0000,0.00322887
-1715.0000,-0.000296927
-1714.0000,-0.00371974
-1713.0000,-0.00556236
-1712.0000,-0.00448938
-1711.0000,-0.000577507
-1710.0000,0.00497118
-1709.0000,0.00969498
-1708.0000,0.0116492
-1707.0000,0.0100708
-1706.0000,0.00625467
-1705.0000,0.0024123
-1704.0000,0.000537073
-1703.0000,0.000757134
-1702.0000,0.00172055
-1701.0000,0.0013321
-1700.0000,-0.00133336
-1699.0000,-0.00600867
-1698.0000,-0.0111671
-1697.0000,-0.0153892
-1696.0000,-0.0173621
-1695.0000,-0.0166632
-1694.0000,-0.0133016
-1693.0000,-0.00821905
-1692.0000,-0.00264941
-1691.0000,0.00190324
-1690.0000,0.00490606
-1689.0000,0.00682258
-1688.0000,0.00915024
-1687.0000,0.0129335
-1686.0000,0.0181355
-1685.0000,0.0227336
-1684.0000,0.0241609
-1683.0000,0.0205332
-1682.0000,0.012185
-1681.0000,0.0010966
-1680.0000,-0.00976774
-1679.0000,-0.0181518
-1678.0000,-0.0228004
-1677.0000,-0.0237609
-1676.0000,-0.0215298
-1675.0000,-0.0171496
-1674.0000,-0.0115244
-1673.0000,-0.00565702
-1672.0000,0.000322014
-1671.0000,0.00646966
-1670.0000,0.0131837
-1669.0000,0.0199607
-1668.0000,0.0253585
-1667.0000,0.0270172
-1666.0000,0.0233487
-1665.0000,0.0143025
-1664.0000,0.00219734
-1663.0000,-0.0097769
-1662.0000,-0.0185614
-1661.0000,-0.0228792
-1660.0000,-0.022861
-1659.0000,-0.0198768
-1658.0000,-0.0152773
-1657.0000,-0.0101932
-1656.0000,-0.00509141
-1655.0000,-0.000221052
-1654.0000,0.00468916
-1653.0000,0.0096329
-1652.0000,0.0145139
-1651.0000,0.0183172
-1650.0000,0.01968
-1649.0000,0.0170861
-1648.0000,0.0104265
-1647.0000,0.000838049
-1646.0000,-0.0090092
-1645.0000,-0.0166985
-1644.0000,-0.0206516
-1643.0000,-0.0211184
-1642.0000,-0.0192119
-1641.0000,-0.0163935
-1640.0000,-0.0132336
-1639.0000,-0.00958091
-1638.0000,-0.00466319
-1637.0000,0.0020229
-1636.0000,0.0105658
-1635.0000,0.0199493
-1634.0000,0.0286177
-1633.0000,0.034319
-1632.0000,0.035374
-1631.0000,0.0308926
-1630.0000,0.0215671
-1629.0000,0.00925224
-1628.0000,-0.00344356
-1627.0000,-0.0146043
-1626.0000,-0.0231167
-1625.0000,-0.0292011
-1624.0000,-0.0331519
-1623.0000,-0.0351556
-1622.0000,-0.0344695
-1621.0000,-0.0301604
-1620.0000,-0.0212113
-1619.0000,-0.00794111
-1618.0000,0.00834798
-1617.0000,0.0248087
-1616.0000,0.0383052
-1615.0000,0.0460711
-1614.0000,0.0469792
-1613.0000,0.0413461
-1612.0000,0.0310522
-1611.0000,0.0183914
-1610.0000,0.00564158
-1609.0000,-0.00607217
-1608.0000,-0.0162714
-1607.0000,-0.0252377
-1606.0000,-0.0328818
-1605.0000,-0.0388819
-1604.0000,-0.042073
-1603.0000,-0.0411971
-1602.0000,-0.0351515
-1601.0000,-0.0242222
-1600.0000,-0.0099412
-1599.0000,0.0048291
-1598.0000,0.0173966
-1597.0000,0.0258574
-1596.0000,0.0301097
-1595.0000,0.031111
-1594.0000,0.0304237
-1593.0000,0.0289125
-1592.0000,0.0268373
-1591.0000,0.0234047
-1590.0000,0.0179054
-1589.0000,0.00968497
-1588.0000,-0.000949876
-1587.0000,-0.0130584
-1586.0000,-0.024663
-1585.0000,-0.0336102
-1584.0000,-0.0376601
-1583.0000,-0.0360995
-1582.0000,-0.0296831
-1581.0000,-0.0208357
-1580.0000,-0.0117261
-1579.0000,-0.00383753
-1578.0000,0.00303971
-1577.0000,0.00959209
-1576.0000,0.0164991
-1575.0000,0.0233941
-1574.0000,0.0291772
-1573.0000,0.0322497
-1572.0000,0.0315672
-1571.0000,0.0266422
-1570.0000,0.0180971
-1569.0000,0.0070297
-1568.0000,-0.00447619
-1567.0000,-0.0140653
-1566.0000,-0.0196282
-1565.0000,-0.0208924
-1564.0000,-0.0191725
-1563.0000,-0.0171285
-1562.0000,-0.0165422
-1561.0000,-0.0176914
-1560.0000,-0.018882
-1559.0000,-0.0180125
-1558.0000,-0.0134934
-1557.0000,-0.00561671
-1556.0000,0.00399035
-1555.0000,0.0129291
-1554.0000,0.0194517
-1553.0000,0.0224199
-1552.0000,0.0218683
-1551.0000,0.0184887
-1550.0000,0.0140905
-1549.0000,0.0105169
-1548.0000,0.00902861
-1547.0000,0.00875687
-1546.0000,0.00750014
-1545.0000,0.00279295
-1544.0000,-0.00590179
-1543.0000,-0.0167198
-1542.0000,-0.0257598
-1541.0000,-0.0294632
-1540.0000,-0.0261267
-1539.0000,-0.01714
-1538.0000,-0.00563075
-1537.0000,0.004657
-1536.0000,0.0114917
-1535.0000,0.0140102
-1534.0000,0.0131657
-1533.0000,0.0106673
-1532.0000,0.00896826
-1531.0000,0.00956296
-1530.0000,0.0124811
-1529.0000,0.0154818
-1528.0000,0.0156377
-1527.0000,0.0108052
-1526.0000,0.00169933
-1525.0000,-0.00856955
-1524.0000,-0.0156158
-1523.0000,-0.0167789
-1522.0000,-0.012161
-1521.0000,-0.00496136
-1520.0000,0.000839925
-1519.0000,0.00234491
-1518.0000,-0.000657129
-1517.0000,-0.00635743
-1516.0000,-0.0116323
-1515.0000,-0.0138688
-1514.0000,-0.0114115
-1513.0000,-0.00475168
-1512.0000,0.00383721
-1511.0000,0.0107001
-1510.0000,0.0129484
-1509.0000,0.00971375
-1508.0000,0.0032321
-1507.0000,-0.00279561
-1506.0000,-0.00481253
-1505.0000,-0.00194271
-1504.0000,0.00385455
-1503.0000,0.00858514
-1502.0000,0.00910357
-1501.0000,0.00459574
-1500.0000,-0.00289495
-1499.0000,-0.0101166
-1498.0000,-0.0139312
-1497.0000,-0.0131065
-1496.0000,-0.00817992
-1495.0000,-0.00160786
-1494.0000,0.00372088
-1493.0000,0.00529644
-1492.0000,0.00263914
-1491.0000,-0.00270865
-1490.0000,-0.00746081
-1489.0000,-0.00852405
-1488.0000,-0.00429755
-1487.0000,0.0038677
-1486.0000,0.0127376
-1485.0000,0.0184308
-1484.0000,0.0190174
-1483.0000,0.0149558
-1482.0000,0.00893294
-1481.0000,0.00360033
-1480.0000,0.000630502
-1479.0000,-0.000275825
-1478.0000,-0.000502775
-1477.0000,-0.00194371
-1476.0000,-0.00552498
-1475.0000,-0.0111113
-1474.0000,-0.0169184
-1473.0000,-0.0207482
-1472.0000,-0.0204022
-1471.0000,-0.0151335
-1470.0000,-0.00578052
-1469.0000,0.00499333
-1468.0000,0.0141022
-1467.0000,0.0190316
-1466.0000,0.0193614
-1465.0000,0.0163153
-1464.0000,0.0121907
-1463.0000,0.00860169
-1462.0000,0.00615167
-1461.0000,0.00400067
-1460.0000,0.00117228
-1459.0000,-0.00311081
-1458.0000,-0.00847838
-1457.0000,-0.013961
-1456.0000,-0.0178747
-1455.0000,-0.0191872
-1454.0000,-0.0173214
-1453.0000,-0.0128067
-1452.0000,-0.00660119
-1451.0000,-0.000237741
-1450.0000,0.00502658
-1449.0000,0.00829499
-1448.0000,0.00988472
-1447.0000,0.0106029
-1446.0000,0.0114467
-1445.0000,0.0126281
-1444.0000,0.0138115
-1443.0000,0.0138858
-1442.0000,0.0120935
-1441.0000,0.00796381
-1440.0000,0.00208059
-1439.0000,-0.00456141
-1438.0000,-0.0105035
-1437.0000,-0.0149306
-1436.0000,-0.0171699
-1435.0000,-0.0171952
-1434.0000,-0.0150268
-1433.0000,-0.011244
-1432.0000,-0.00648967
-1431.0000,-0.00166164
-1430.0000,0.00292302
-1429.0000,0.00703821
-1428.0000,0.010795
-1427.0000,0.0138699
-1426.0000,0.0159253
-1425.0000,0.0161522
-1424.0000,0.0140066
-1423.0000,0.00919196
-1422.0000,0.00244703
-1421.0000,-0.00509295
-1420.0000,-0.0117607
-1419.0000,-0.0165047
-1418.0000,-0.0185448
-1417.0000,-0.0178901
-1416.0000,-0.0148295
-1415.0000,-0.0103966
-1414.0000,-0.00561272
-1413.0000,-0.00151587
-1412.0000,0.00167695
-1411.0000,0.00407248
-1410.0000,0.00616779
-1409.0000,0.00814288
-1408.0000,0.0100289
-1407.0000,0.0111952
-1406.0000,0.0110564
-1405.0000,0.00912331
-1404.0000,0.00588797
-1403.0000,0.00224114
-1402.0000,-0.000737369
-1401.0000,-0.00261698
-1400.0000,-0.00334797
-1399.0000,-0.00352615
-1398.0000,-0.00358805
-1397.0000,-0.0041453
-1396.0000,-0.00512064
-1395.0000,-0.00621413
-1394.0000,-0.00649301
-1393.0000,-0.00541871
-1392.0000,-0.00269417
-1391.0000,0.00113629
-1390.0000,0.00539784
-1389.0000,0.00893527
-1388.0000,0.0109815
-1387.0000,0.0110991
-1386.0000,0.00983278
-1385.0000,0.00788147
-1384.0000,0.00602838
-1383.0000,0.00426919
-1382.0000,0.00232552
-1381.0000,-0.000297666
-1380.0000,-0.00360229
-1379.0000,-0.00730182
-1378.0000,-0.0104466
-1377.0000,-0.0122505
-1376.0000,-0.0119735
-1375.0000,-0.00979812
-1374.0000,-0.00631023
-1373.0000,-0.00255412
-1372.0000,0.000810497
-1371.0000,0.00311193
-1370.0000,0.00434558
-1369.0000,0.00458125
-1368.0000,0.0044261
-1367.0000,0.00429668
-1366.0000,0.0045053
-1365.0000,0.00470916
-1364.0000,0.0045445
-1363.0000,0.0035962
-1362.0000,0.00193113
-1361.0000,-0.00028867
-1360.0000,-0.00252269
-1359.0000,-0.00454907
-1358.0000,-0.00612455
-1357.0000,-0.00760549
-1356.0000,-0.00894853
-1355.0000,-0.0100302
-1354.0000,-0.0101464
-1353.0000,-0.00880827
-1352.0000,-0.00569856
-1351.0000,-0.00122032
-1350.0000,0.00421815
-1349.0000,0.00978171
-1348.0000,0.0147898
-1347.0000,0.0182484
-1346.0000,0.0195552
-1345.0000,0.0182724
-1344.0000,0.0145447
-1343.0000,0.00871132
-1342.0000,0.00165112
-1341.0000,-0.00584248
-1340.0000,-0.0127747
-1339.0000,-0.0185338
-1338.0000,-0.0223027
-1337.0000,-0.0234959
-1336.0000,-0.0215052
-1335.0000,-0.0165501
-1334.0000,-0.00924937
-1333.0000,-0.000841776
-1332.0000,0.00771723
-1331.0000,0.0153077
-1330.0000,0.0212034
-1329.0000,0.0245551
-1328.0000,0.0249451
-1327.0000,0.0220153
-1326.0000,0.0161001
-1325.0000,0.00789491
-1324.0000,-0.00121919
-1323.0000,-0.00997204
-1322.0000,-0.0171027
-1321.0000,-0.0220989
-1320.0000,-0.0245143
-1319.0000,-0.0243804
-1318.0000,-0.0217425
-1317.0000,-0.0171802
-1316.0000,-0.0110818
-1315.0000,-0.00409973
-1314.0000,0.00344072
-1313.0000,0.0108161
-1312.0000,0.0173106
-1311.0000,0.0218777
-1310.0000,0.0239135
-1309.0000,0.0228916
-1308.0000,0.0191558
-1307.0000,0.0134467
-1306.0000,0.00694793
-1305.0000,0.000405113
-1304.0000,-0.00558819
-1303.0000,-0.011004
-1302.0000,-0.0154656
-1301.0000,-0.0186688
-1300.0000,-0.0198339
-1299.0000,-0.018498
-1298.0000,-0.0141602
-1297.0000,-0.00714779
-1296.0000,0.00169208
-1295.0000,0.0106245
-1294.0000,0.0178736
-1293.0000,0.0217817
-1292.0000,0.0219381
-1291.0000,0.0186723
-1290.0000,0.0132009
-1289.0000,0.00671971
-1288.0000,0.000362082
-1287.0000,-0.00549812
-1286.0000,-0.0106611
-1285.0000,-0.0150662
-1284.0000,-0.0180604
-1283.0000,-0.0188844
-1282.0000,-0.016545
-1281.0000,-0.0109709
-1280.0000,-0.0027106
-1279.0000,0.00652188
-1278.0000,0.0146169
-1277.0000,0.0192922
-1276.0000,0.0193596
-1275.0000,0.0148517
-1274.0000,0.00749748
-1273.0000,-0.000612252
-1272.0000,-0.00745081
-1271.0000,-0.0123146
-1270.0000,-0.0152283
-1269.0000,-0.0169742
-1268.0000,-0.0179121
-1267.0000,-0.0179708
-1266.0000,-0.0162866
-1265.0000,-0.0121042
-1264.0000,-0.00513511
-1263.0000,0.00360753
-1262.0000,0.0125593
-1261.0000,0.0195678
-1260.0000,0.0229147
-1259.0000,0.0217096
-1258.0000,0.0167551
-1257.0000,0.0098584
-1256.0000,0.00351522
-1255.0000,-0.000768603
-1254.0000,-0.00270322
-1253.0000,-0.00358744
-1252.0000,-0.0048482
-1251.0000,-0.00750868
-1250.0000,-0.0110755
-1249.0000,-0.0142266
-1248.0000,-0.0151448
-1247.0000,-0.012973
-1246.0000,-0.00783554
-1245.0000,-0.00120783
-1244.0000,0.00531305
-1243.0000,0.010079
-1242.0000,0.0124662
-1241.0000,0.0125796
-1240.0000,0.0115386
-1239.0000,0.0105803
-1238.0000,0.0105877
-1237.0000,0.0110693
-1236.0000,0.0107858
-1235.0000,0.00803386
-1234.0000,0.00237138
-1233.0000,-0.00535232
-1232.0000,-0.0128255
-1231.0000,-0.0177714
-1230.0000,-0.0186349
-1229.0000,-0.0156788
-1228.0000,-0.0102716
-1227.0000,-0.00450409
-1226.0000,0.000190382
-1225.0000,0.00291767
-1224.0000,0.00381387
-1223.0000,0.00346785
-1222.0000,0.00295224
-1221.0000,0.00294486
-1220.0000,0.00373263
-1219.0000,0.00452968
-1218.0000,0.00451169
-1217.0000,0.00289478
-1216.0000,0.00022029
-1215.0000,-0.00235679
-1214.0000,-0.00326686
-1213.0000,-0.00190079
-1212.0000,0.00131893
-1211.0000,0.00474788
-1210.0000,0.00685112
-1209.0000,0.00649551
-1208.0000,0.00393551
-1207.0000,-7.20725E-005
-1206.0000,-0.00417231
-1205.0000,-0.0073136
-1204.0000,-0.00849438
-1203.0000,-0.00755071
-1202.0000,-0.004784
-1201.0000,-0.00135594
-1200.0000,0.00176451
-1199.0000,0.00368228
-1198.0000,0.00449776
-1197.0000,0.00466419
-1196.0000,0.00484431
-1195.0000,0.0049919
-1194.0000,0.00466812
-1193.0000,0.00312369
-1192.0000,0.000348616
-1191.0000,-0.00327989
-1190.0000,-0.00661762
-1189.0000,-0.00881407
-1188.0000,-0.00911341
-1187.0000,-0.00746114
-1186.0000,-0.00401568
-1185.0000,0.000391548
-1184.0000,0.00483105
-1183.0000,0.00794001
-1182.0000,0.00892378
-1181.0000,0.00750111
-1180.0000,0.00441924
-1179.0000,0.000655604
-1178.0000,-0.00262551
-1177.0000,-0.00501504
-1176.0000,-0.0063719
-1175.0000,-0.0070433
-1174.0000,-0.00712438
-1173.0000,-0.00680576
-1172.0000,-0.0059698
-1171.0000,-0.00480069
-1170.0000,-0.00321633
-1169.0000,-0.0013931
-1168.0000,0.000726315
-1167.0000,0.00283363
-1166.0000,0.00465727
-1165.0000,0.00574102
-1164.0000,0.00614502
-1163.0000,0.00608916
-1162.0000,0.00635422
-1161.0000,0.0072793
-1160.0000,0.00894663
-1159.0000,0.0106036
-1158.0000,0.0113779
-1157.0000,0.0102904
-1156.0000,0.00702667
-1155.0000,0.00164944
-1154.0000,-0.00490534
-1153.0000,-0.011541
-1152.0000,-0.0167293
-1151.0000,-0.0194623
-1150.0000,-0.0191699
-1149.0000,-0.0163327
-1148.0000,-0.0116801
-1147.0000,-0.00632347
-1146.0000,-0.000751006
-1145.0000,0.00470401
-1144.0000,0.0100695
-1143.0000,0.0149991
-1142.0000,0.0189868
-1141.0000,0.0210822
-1140.0000,0.0206976
-1139.0000,0.0173802
-1138.0000,0.01151
-1137.0000,0.00386371
-1136.0000,-0.00404732
-1135.0000,-0.0106983
-1134.0000,-0.0147363
-1133.0000,-0.0160112
-1132.0000,-0.0150747
-1131.0000,-0.0133921
-1130.0000,-0.0121091
-1129.0000,-0.0118771
-1128.0000,-0.0121278
-1127.0000,-0.0119614
-1126.0000,-0.0102329
-1125.0000,-0.00663711
-1124.0000,-0.00125747
-1123.0000,0.00505964
-1122.0000,0.0114071
-1121.0000,0.0166267
-1120.0000,0.0200082
-1119.0000,0.021154
-1118.0000,0.0204473
-1117.0000,0.0182942
-1116.0000,0.0152148
-1115.0000,0.0109437
-1114.0000,0.00510831
-1113.0000,-0.00274042
-1112.0000,-0.0119706
-1111.0000,-0.0211538
-1110.0000,-0.0280582
-1109.0000,-0.0309137
-1108.0000,-0.0287245
-1107.0000,-0.0219697
-1106.0000,-0.011938
-1105.0000,-0.000697911
-1104.0000,0.00976066
-1103.0000,0.0175695
-1102.0000,0.021869
-1101.0000,0.0225963
-1100.0000,0.0208829
-1099.0000,0.0178944
-1098.0000,0.0146618
-1097.0000,0.0111206
-1096.0000,0.00692925
-1095.0000,0.00153324
-1094.0000,-0.00467688
-1093.0000,-0.0106857
-1092.0000,-0.0150345
-1091.0000,-0.0169665
-1090.0000,-0.016284
-1089.0000,-0.0137125
-1088.0000,-0.0101023
-1087.0000,-0.00661896
-1086.0000,-0.00395079
-1085.0000,-0.00257926
-1084.0000,-0.00200935
-1083.0000,-0.00128839
-1082.0000,0.000938226
-1081.0000,0.00519741
-1080.0000,0.0110333
-1079.0000,0.0165099
-1078.0000,0.0195039
-1077.0000,0.0184123
-1076.0000,0.0133845
-1075.0000,0.00563242
-1074.0000,-0.00265291
-1073.0000,-0.00980672
-1072.0000,-0.0145326
-1071.0000,-0.0164944
-1070.0000,-0.0157718
-1069.0000,-0.0131503
-1068.0000,-0.00938103
-1067.0000,-0.00523728
-1066.0000,-0.000746211
-1065.0000,0.00422937
-1064.0000,0.00992899
-1063.0000,0.0156365
-1062.0000,0.0199246
-1061.0000,0.0207121
-1060.0000,0.0167996
-1059.0000,0.00838016
-1058.0000,-0.0022683
-1057.0000,-0.0122442
-1056.0000,-0.0187601
-1055.0000,-0.02057
-1054.0000,-0.0177338
-1053.0000,-0.0117106
-1052.0000,-0.00430096
-1051.0000,0.00241148
-1050.0000,0.0072228
-1049.0000,0.00959774
-1048.0000,0.010276
-1047.0000,0.0102388
-1046.0000,0.0102726
-1045.0000,0.0101172
-1044.0000,0.00887402
-1043.0000,0.0053385
-1042.0000,-0.000489114
-1041.0000,-0.00739902
-1040.0000,-0.0130556
-1039.0000,-0.0156834
-1038.0000,-0.0145924
-1037.0000,-0.0108893
-1036.0000,-0.00636361
-1035.0000,-0.00293209
-1034.0000,-0.00157135
-1033.0000,-0.00234442
-1032.0000,-0.00402086
-1031.0000,-0.00496639
-1030.0000,-0.00340185
-1029.0000,0.00125598
-1028.0000,0.00832921
-1027.0000,0.0155839
-1026.0000,0.0205456
-1025.0000,0.0212311
-1024.0000,0.0175509
-1023.0000,0.0108408
-1022.0000,0.0034108
-1021.0000,-0.00331312
-1020.0000,-0.00878138
-1019.0000,-0.0135608
-1018.0000,-0.017926
-1017.0000,-0.0217617
-1016.0000,-0.0240289
-1015.0000,-0.023476
-1014.0000,-0.0189148
-1013.0000,-0.0100921
-1012.0000,0.00223209
-1011.0000,0.0157675
-1010.0000,0.0276137
-1009.0000,0.0346577
-1008.0000,0.0351787
-1007.0000,0.029185
-1006.0000,0.0189027
-1005.0000,0.0073647
-1004.0000,-0.00256736
-1003.0000,-0.00967153
-1002.0000,-0.0139781
-1001.0000,-0.0165253
-1000.0000,-0.0178501
-999.0000,-0.018122
-998.0000,-0.0169104
-997.0000,-0.0140272
-996.0000,-0.00939272
-995.0000,-0.00365803
-994.0000,0.00221246
-993.0000,0.00675614
-992.0000,0.0089611
-991.0000,0.0083236
-990.0000,0.00559602
-989.0000,0.00222123
-988.0000,0.000262694
-987.0000,0.000878697
-986.0000,0.00403941
-985.0000,0.00798916
-984.0000,0.0106746
-983.0000,0.0104094
-982.0000,0.00710079
-981.0000,0.00154491
-980.0000,-0.00468984
-979.0000,-0.0101667
-978.0000,-0.0137562
-977.0000,-0.0151349
-976.0000,-0.0142745
-975.0000,-0.0117555
-974.0000,-0.0080484
-973.0000,-0.00379394
-972.0000,0.000874419
-971.0000,0.00571749
-970.0000,0.0105375
-969.0000,0.0144515
-968.0000,0.0163149
-967.0000,0.0148095
-966.0000,0.00971768
-965.0000,0.00199217
-964.0000,-0.0060685
-963.0000,-0.0121534
-962.0000,-0.0145335
-961.0000,-0.0129344
-960.0000,-0.0079354
-959.0000,-0.00117452
-958.0000,0.00562361
-957.0000,0.0106642
-956.0000,0.0130016
-955.0000,0.0121573
-954.0000,0.00875626
-953.0000,0.00372501
-952.0000,-0.00165173
-951.0000,-0.00659796
-950.0000,-0.0106158
-949.0000,-0.0136162
-948.0000,-0.0150389
-947.0000,-0.0143368
-946.0000,-0.0109238
-945.0000,-0.00516324
-944.0000,0.00194571
-943.0000,0.00868458
-942.0000,0.0136329
-941.0000,0.015635
-940.0000,0.0144844
-939.0000,0.0105547
-938.0000,0.00510628
-937.0000,-0.00055685
-936.0000,-0.0050111
-935.0000,-0.00727013
-934.0000,-0.00688825
-933.0000,-0.00454582
-932.0000,-0.00135594
-931.0000,0.00137481
-930.0000,0.00313808
-929.0000,0.00369563
-928.0000,0.00320611
-927.0000,0.00157609
-926.0000,-0.000932661
-925.0000,-0.00413945
-924.0000,-0.00728769
-923.0000,-0.00970385
-922.0000,-0.0103855
-921.0000,-0.00885317
-920.0000,-0.00486533
-919.0000,0.000975874
-918.0000,0.00788213
-917.0000,0.0144905
-916.0000,0.019402
-915.0000,0.0210131
-914.0000,0.0185532
-913.0000,0.0122125
-912.0000,0.00352541
-911.0000,-0.00555684
-910.0000,-0.0129864
-909.0000,-0.0175689
-908.0000,-0.0186634
-907.0000,-0.0166157
-906.0000,-0.012099
-905.0000,-0.00626381
-904.0000,-0.000224955
-903.0000,0.00474558
-902.0000,0.0078692
-901.0000,0.00854249
-900.0000,0.00705609
-899.0000,0.00381015
-898.0000,-0.000380913
-897.0000,-0.00484055
-896.0000,-0.00844165
-895.0000,-0.0101501
-894.0000,-0.00890808
-893.0000,-0.00462595
-892.0000,0.00197798
-891.0000,0.00911015
-890.0000,0.0149287
-889.0000,0.0177079
-888.0000,0.0167949
-887.0000,0.0122835
-886.0000,0.00527243
-885.0000,-0.00293021
-884.0000,-0.010721
-883.0000,-0.0167654
-882.0000,-0.0199247
-881.0000,-0.0199498
-880.0000,-0.0170694
-879.0000,-0.01206
-878.0000,-0.00558878
-877.0000,0.00159001
-876.0000,0.0088356
-875.0000,0.0150526
-874.0000,0.0190699
-873.0000,0.0197847
-872.0000,0.0170608
-871.0000,0.0114635
-870.0000,0.00462662
-869.0000,-0.00174569
-868.0000,-0.00611068
-867.0000,-0.00794406
-866.0000,-0.00727521
-865.0000,-0.00501732
-864.0000,-0.00213814
-863.0000,1.01303E-005
-862.0000,0.000558542
-861.0000,-0.000882667
-860.0000,-0.00366754
-859.0000,-0.00685972
-858.0000,-0.00927646
-857.0000,-0.0102936
-856.0000,-0.00953345
-855.0000,-0.00707481
-854.0000,-0.00283566
-853.0000,0.0029599
-852.0000,0.00999961
-851.0000,0.0171317
-850.0000,0.0228564
-849.0000,0.025252
-848.0000,0.0232261
-847.0000,0.0164459
-846.0000,0.00595342
-845.0000,-0.00652748
-844.0000,-0.0185513
-843.0000,-0.0278537
-842.0000,-0.0324273
-841.0000,-0.0315134
-840.0000,-0.0253715
-839.0000,-0.0155511
-838.0000,-0.00411068
-837.0000,0.00677846
-836.0000,0.0157185
-835.0000,0.0217557
-834.0000,0.0246607
-833.0000,0.0240401
-832.0000,0.0200671
-831.0000,0.0131833
-830.0000,0.00474987
-829.0000,-0.00361358
-828.0000,-0.0100388
-827.0000,-0.0134712
-826.0000,-0.0134994
-825.0000,-0.0107969
-824.0000,-0.00639564
-823.0000,-0.00179018
-822.0000,0.00178401
-821.0000,0.00321469
-820.0000,0.00226008
-819.0000,-0.000708019
-818.0000,-0.00428852
-817.0000,-0.00715787
-816.0000,-0.00814606
-815.0000,-0.00708053
-814.0000,-0.00408316
-813.0000,0.000250682
-812.0000,0.00552412
-811.0000,0.0110179
-810.0000,0.0159937
-809.0000,0.019184
-808.0000,0.0195554
-807.0000,0.0161964
-806.0000,0.00942289
-805.0000,0.000214013
-804.0000,-0.00960595
-803.0000,-0.0183876
-802.0000,-0.0243696
-801.0000,-0.0265148
-800.0000,-0.0241571
-799.0000,-0.0178076
-798.0000,-0.00868377
-797.0000,0.00109072
-796.0000,0.00954402
-795.0000,0.0150903
-794.0000,0.0172483
-793.0000,0.0160615
-792.0000,0.0123775
-791.0000,0.00701368
-790.0000,0.0011529
-789.0000,-0.00401489
-788.0000,-0.00704486
-787.0000,-0.00708646
-786.0000,-0.00405414
-785.0000,0.000908328
-784.0000,0.00624834
-783.0000,0.0101381
-782.0000,0.0115744
-781.0000,0.00994411
-780.0000,0.00563418
-779.0000,-0.000767939
-778.0000,-0.00787735
-777.0000,-0.0142681
-776.0000,-0.0182453
-775.0000,-0.018796
-774.0000,-0.0155539
-773.0000,-0.00935777
-772.0000,-0.00140192
-771.0000,0.00685407
-770.0000,0.0143327
-769.0000,0.019783
-768.0000,0.0222109
-767.0000,0.0206648
-766.0000,0.0151365
-765.0000,0.00643865
-764.0000,-0.00338774
-763.0000,-0.0121705
-762.0000,-0.0178813
-761.0000,-0.0196084
-760.0000,-0.017236
-759.0000,-0.01164
-758.0000,-0.00373193
-757.0000,0.00483678
-756.0000,0.0123588
-755.0000,0.0169797
-754.0000,0.0176308
-753.0000,0.0140814
-752.0000,0.00740538
-751.0000,-0.000984662
-750.0000,-0.00939337
-749.0000,-0.0166166
-748.0000,-0.021303
-747.0000,-0.0225571
-746.0000,-0.0196596
-745.0000,-0.012925
-744.0000,-0.00351854
-743.0000,0.00625512
-742.0000,0.0142863
-741.0000,0.0189122
-740.0000,0.0197757
-739.0000,0.0172286
-738.0000,0.0121274
-737.0000,0.00539684
-736.0000,-0.00160802
-735.0000,-0.00752826
-734.0000,-0.0108642
-733.0000,-0.0110788
-732.0000,-0.00843291
-731.0000,-0.0043497
-730.0000,-0.000307078
-729.0000,0.0023038
-728.0000,0.00311475
-727.0000,0.00200376
-726.0000,-0.000586242
-725.0000,-0.00421199
-724.0000,-0.00772206
-723.0000,-0.00978722
-722.0000,-0.00887552
-721.0000,-0.00454815
-720.0000,0.0026803
-719.0000,0.0110865
-718.0000,0.0188205
-717.0000,0.0242401
-716.0000,0.02658
-715.0000,0.0252392
-714.0000,0.0200142
-713.0000,0.0106283
-712.0000,-0.00206266
-711.0000,-0.016303
-710.0000,-0.0292944
-709.0000,-0.0384769
-708.0000,-0.0418716
-707.0000,-0.0389128
-706.0000,-0.0299059
-705.0000,-0.0162105
-704.0000,0.000280717
-703.0000,0.0167681
-702.0000,0.0303772
-701.0000,0.038419
-700.0000,0.0398265
-699.0000,0.0350446
-698.0000,0.0259505
-697.0000,0.0145823
-696.0000,0.00275296
-695.0000,-0.00857654
-694.0000,-0.0181696
-693.0000,-0.0249277
-692.0000,-0.0275007
-691.0000,-0.0256371
-690.0000,-0.0200007
-689.0000,-0.0125059
-688.0000,-0.0050318
-687.0000,0.00083557
-686.0000,0.00458155
-685.0000,0.00612707
-684.0000,0.00609878
-683.0000,0.00528613
-682.0000,0.00508451
-681.0000,0.00661629
-680.0000,0.0105456
-679.0000,0.0159349
-678.0000,0.020889
-677.0000,0.0229749
-676.0000,0.0209252
-675.0000,0.0147322
-674.0000,0.00572697
-673.0000,-0.00474394
-672.0000,-0.0153135
-671.0000,-0.0252132
-670.0000,-0.0332358
-669.0000,-0.0380241
-668.0000,-0.0379233
-667.0000,-0.0321969
-666.0000,-0.0211366
-665.0000,-0.00639335
-664.0000,0.00995008
-663.0000,0.0252122
-662.0000,0.0371021
-661.0000,0.0432645
-660.0000,0.0423741
-659.0000,0.0343525
-658.0000,0.0211654
-657.0000,0.00579167
-656.0000,-0.00845267
-655.0000,-0.0194487
-654.0000,-0.0263079
-653.0000,-0.0293806
-652.0000,-0.0289646
-651.0000,-0.0253821
-650.0000,-0.0187846
-649.0000,-0.0102173
-648.0000,-0.00126899
-647.0000,0.00595424
-646.0000,0.0102207
-645.0000,0.0111053
-644.0000,0.00924145
-643.0000,0.00574276
-642.0000,0.00227352
-641.0000,0.000291512
-640.0000,0.00113427
-639.0000,0.00513775
-638.0000,0.011552
-637.0000,0.0182268
-636.0000,0.0226872
-635.0000,0.0228629
-634.0000,0.0185028
-633.0000,0.0106074
-632.0000,0.00115607
-631.0000,-0.00831904
-630.0000,-0.016626
-629.0000,-0.0230509
-628.0000,-0.0265689
-627.0000,-0.0264404
-626.0000,-0.022139
-625.0000,-0.0142578
-624.0000,-0.0040182
-623.0000,0.00656247
-622.0000,0.0155789
-621.0000,0.021191
-620.0000,0.0224764
-619.0000,0.0189779
-618.0000,0.011593
-617.0000,0.00215679
-616.0000,-0.00658415
-615.0000,-0.01239
-614.0000,-0.0140661
-613.0000,-0.0122033
-612.0000,-0.00816047
-611.0000,-0.00358331
-610.0000,0.000613637
-609.0000,0.00383289
-608.0000,0.00589326
-607.0000,0.00637948
-606.0000,0.00499212
-605.0000,0.00143684
-604.0000,-0.00376789
-603.0000,-0.00962998
-602.0000,-0.0145742
-601.0000,-0.0172395
-600.0000,-0.0162955
-599.0000,-0.011257
-598.0000,-0.00243191
-597.0000,0.00837921
-596.0000,0.0187299
-595.0000,0.025695
-594.0000,0.0276615
-593.0000,0.0243179
-592.0000,0.0170204
-591.0000,0.00763211
-590.0000,-0.00185523
-589.0000,-0.0101984
-588.0000,-0.016537
-587.0000,-0.0205001
-586.0000,-0.0215269
-585.0000,-0.0195321
-584.0000,-0.0145925
-583.0000,-0.00767365
-582.0000,9.4788E-005
-581.0000,0.00713131
-580.0000,0.0120166
-579.0000,0.0133973
-578.0000,0.0110284
-577.0000,0.00573679
-576.0000,-0.000249895
-575.0000,-0.00446007
-574.0000,-0.00488587
-573.0000,-0.00133763
-572.0000,0.00496403
-571.0000,0.0114642
-570.0000,0.0158601
-569.0000,0.0165836
-568.0000,0.013615
-567.0000,0.0077924
-566.0000,0.000597169
-565.0000,-0.00674472
-564.0000,-0.0129817
-563.0000,-0.017582
-562.0000,-0.0201688
-561.0000,-0.0208671
-560.0000,-0.0193503
-559.0000,-0.0152321
-558.0000,-0.0080507
-557.0000,0.00171722
-556.0000,0.0126702
-555.0000,0.0221668
-554.0000,0.0276132
-553.0000,0.0271181
-552.0000,0.0207871
-551.0000,0.0103748
-550.0000,-0.00106985
-549.0000,-0.0108565
-548.0000,-0.0172142
-547.0000,-0.0198035
-546.0000,-0.0190883
-545.0000,-0.0164328
-544.0000,-0.0130517
-543.0000,-0.00988601
-542.0000,-0.00681695
-541.0000,-0.00339792
-540.0000,0.000934319
-539.0000,0.0058688
-538.0000,0.0104922
-537.0000,0.0133302
-536.0000,0.013554
-535.0000,0.0113109
-534.0000,0.00825918
-533.0000,0.0064354
-532.0000,0.00734617
-531.0000,0.0106423
-530.0000,0.0146891
-529.0000,0.0168895
-528.0000,0.0152461
-527.0000,0.00875543
-526.0000,-0.00181552
-525.0000,-0.0143927
-524.0000,-0.0257042
-523.0000,-0.0330815
-522.0000,-0.0347953
-521.0000,-0.0310167
-520.0000,-0.0232192
-519.0000,-0.0137504
-518.0000,-0.00445948
-517.0000,0.00356061
-516.0000,0.0105539
-515.0000,0.0167847
-514.0000,0.0221469
-513.0000,0.0253185
-512.0000,0.0249967
-511.0000,0.0203039
-510.0000,0.011873
-509.0000,0.00146406
-508.0000,-0.0081655
-507.0000,-0.0145784
-506.0000,-0.0162115
-505.0000,-0.013421
-504.0000,-0.00783954
-503.0000,-0.00214032
-502.0000,0.00150068
-501.0000,0.00174731
-500.0000,-0.000838487
-499.0000,-0.00429206
-498.0000,-0.00594081
-497.0000,-0.00428715
-496.0000,0.000666318
-495.0000,0.00701379
-494.0000,0.0126357
-493.0000,0.0157673
-492.0000,0.0161859
-491.0000,0.014551
-490.0000,0.0122252
-489.0000,0.00991997
-488.0000,0.00774624
-487.0000,0.00479124
-486.0000,0.000197895
-485.0000,-0.00636041
-484.0000,-0.0140598
-483.0000,-0.0213939
-482.0000,-0.0259208
-481.0000,-0.0257003
-480.0000,-0.0198122
-479.0000,-0.00951698
-478.0000,0.00241916
-477.0000,0.012419
-476.0000,0.0180385
-475.0000,0.0185111
-474.0000,0.0151677
-473.0000,0.0100723
-472.0000,0.00519435
-471.0000,0.00127235
-470.0000,-0.00191014
-469.0000,-0.00519311
-468.0000,-0.00869882
-467.0000,-0.0120731
-466.0000,-0.0142121
-465.0000,-0.0142387
-464.0000,-0.0115032
-463.0000,-0.00646786
-462.0000,-0.000291754
-461.0000,0.00488388
-460.0000,0.00729234
-459.0000,0.00593654
-458.0000,0.00189115
-457.0000,-0.00259471
-456.0000,-0.00469906
-455.0000,-0.00291139
-454.0000,0.00252388
-453.0000,0.00919097
-452.0000,0.0141852
-451.0000,0.0151256
-450.0000,0.0116685
-449.0000,0.00495134
-448.0000,-0.00281359
-447.0000,-0.00967545
-446.0000,-0.0139853
-445.0000,-0.0152112
-444.0000,-0.0134027
-443.0000,-0.00942463
-442.0000,-0.00405862
-441.0000,0.00215088
-440.0000,0.00924371
-439.0000,0.0170928
-438.0000,0.0251202
-437.0000,0.0314484
-436.0000,0.0337053
-435.0000,0.0295043
-434.0000,0.0184207
-433.0000,0.00228847
-432.0000,-0.0149184
-431.0000,-0.0290831
-430.0000,-0.0370892
-429.0000,-0.0382528
-428.0000,-0.0334554
-427.0000,-0.0250004
-426.0000,-0.0152186
-425.0000,-0.00629017
-424.0000,0.00072455
-423.0000,0.00555483
-422.0000,0.00885048
-421.0000,0.0111012
-420.0000,0.0127163
-419.0000,0.013151
-418.0000,0.0117442
-417.0000,0.00807063
-416.0000,0.00317086
-415.0000,-0.00100862
-414.0000,-0.00226517
-413.0000,-6.81972E-005
-412.0000,0.00440852
-411.0000,0.00839247
-410.0000,0.00941102
-409.0000,0.00597927
-408.0000,-0.00122314
-407.0000,-0.0102261
-406.0000,-0.0180464
-405.0000,-0.022226
-404.0000,-0.0210664
-403.0000,-0.0144255
-402.0000,-0.00355826
-401.0000,0.00887379
-400.0000,0.0201662
-399.0000,0.0279657
-398.0000,0.0315767
-397.0000,0.0312611
-396.0000,0.0277505
-395.0000,0.0210198
-394.0000,0.0108737
-393.0000,-0.00264496
-392.0000,-0.017919
-391.0000,-0.0321191
-390.0000,-0.0416251
-389.0000,-0.043689
-388.0000,-0.0373337
-387.0000,-0.0240906
-386.0000,-0.00705272
-385.0000,0.00961426
-384.0000,0.0222899
-383.0000,0.0282036
-382.0000,0.0266605
-381.0000,0.0189345
-380.0000,0.00833005
-379.0000,-0.00162585
-378.0000,-0.00825035
-377.0000,-0.0108977
-376.0000,-0.0101224
-375.0000,-0.00724215
-374.0000,-0.00292858
-373.0000,0.00232292
-372.0000,0.00821203
-371.0000,0.013411
-370.0000,0.0159858
-369.0000,0.0138187
-368.0000,0.00625573
-367.0000,-0.00561962
-366.0000,-0.0189518
-365.0000,-0.0303077
-364.0000,-0.0361677
-363.0000,-0.0342731
-362.0000,-0.0238286
-361.0000,-0.00660834
-360.0000,0.0136966
-359.0000,0.0318812
-358.0000,0.0436277
-357.0000,0.0465031
-356.0000,0.0408763
-355.0000,0.0289801
-354.0000,0.0139132
-353.0000,-0.00202199
-352.0000,-0.0171623
-351.0000,-0.0303067
-350.0000,-0.039624
-349.0000,-0.0431758
-348.0000,-0.039342
-347.0000,-0.0281965
-346.0000,-0.0113322
-345.0000,0.00789933
-344.0000,0.0256803
-343.0000,0.0379951
-342.0000,0.0421493
-341.0000,0.0371374
-340.0000,0.0247894
-339.0000,0.00901637
-338.0000,-0.00506209
-337.0000,-0.0134151
-336.0000,-0.0141723
-335.0000,-0.00870916
-334.0000,-0.000116402
-333.0000,0.00801988
-332.0000,0.0134665
-331.0000,0.0150396
-330.0000,0.0124599
-329.0000,0.00553826
-328.0000,-0.00543441
-327.0000,-0.0194623
-326.0000,-0.0343645
-325.0000,-0.0473373
-324.0000,-0.0549788
-323.0000,-0.0545648
-322.0000,-0.0442826
-321.0000,-0.0244954
-320.0000,0.00246541
-319.0000,0.0315541
-318.0000,0.0563215
-317.0000,0.0703454
-316.0000,0.0699082
-315.0000,0.0551644
-314.0000,0.0305012
-313.0000,0.00212866
-312.0000,-0.0237144
-311.0000,-0.0428273
-310.0000,-0.0528775
-309.0000,-0.0535953
-308.0000,-0.0455609
-307.0000,-0.0305347
-306.0000,-0.0107571
-305.0000,0.0105821
-304.0000,0.0300878
-303.0000,0.0443941
-302.0000,0.051003
-301.0000,0.0483202
-300.0000,0.0366309
-299.0000,0.0179794
-298.0000,-0.00313433
-297.0000,-0.0210119
-296.0000,-0.0303787
-295.0000,-0.0290144
-294.0000,-0.0182472
-293.0000,-0.00282891
-292.0000,0.0115623
-291.0000,0.0199334
-290.0000,0.0199824
-289.0000,0.011795
-288.0000,-0.00227617
-287.0000,-0.019096
-286.0000,-0.0351008
-285.0000,-0.0470469
-284.0000,-0.0521005
-283.0000,-0.0486715
-282.0000,-0.0362507
-281.0000,-0.0157932
-280.0000,0.0109387
-279.0000,0.0407306
-278.0000,0.0690045
-277.0000,0.0896161
-276.0000,0.0967757
-275.0000,0.0866948
-274.0000,0.0599329
-273.0000,0.0212953
-272.0000,-0.0207304
-271.0000,-0.0572296
-270.0000,-0.0810143
-269.0000,-0.0889112
-268.0000,-0.0813186
-267.0000,-0.0617573
-266.0000,-0.0351741
-265.0000,-0.00727521
-264.0000,0.0169776
-263.0000,0.0339008
-262.0000,0.0419754
-261.0000,0.0410599
-260.0000,0.0323909
-259.0000,0.0177405
-258.0000,5.58465E-005
-257.0000,-0.0170262
-256.0000,-0.028879
-255.0000,-0.0314567
-254.0000,-0.0226761
-253.0000,-0.00419693
-252.0000,0.0187438
-251.0000,0.0384843
-250.0000,0.0483265
-249.0000,0.0444851
-248.0000,0.0275265
-247.0000,0.00159086
-246.0000,-0.0265576
-245.0000,-0.0499663
-244.0000,-0.0627731
-243.0000,-0.06213
-242.0000,-0.0481253
-241.0000,-0.0238492
-240.0000,0.00628829
-239.0000,0.0371216
-238.0000,0.0640681
-237.0000,0.0829572
-236.0000,0.0903689
-235.0000,0.0832291
-234.0000,0.0602702
-233.0000,0.0229129
-232.0000,-0.0233111
-231.0000,-0.0699308
-230.0000,-0.10712
-229.0000,-0.126844
-228.0000,-0.124834
-227.0000,-0.102081
-226.0000,-0.0641584
-225.0000,-0.0197302
-224.0000,0.0222789
-223.0000,0.0544347
-222.0000,0.0727083
-221.0000,0.076401
-220.0000,0.0682101
-219.0000,0.0524573
-218.0000,0.0340281
-217.0000,0.016966
-216.0000,0.00466661
-215.0000,-0.000651348
-214.0000,0.00237433
-213.0000,0.0130922
-212.0000,0.0289175
-211.0000,0.0448191
-210.0000,0.0547537
-209.0000,0.0528731
-208.0000,0.0363511
-207.0000,0.00631297
-206.0000,-0.0315338
-205.0000,-0.0687675
-204.0000,-0.0961668
-203.0000,-0.106767
-202.0000,-0.0972068
-201.0000,-0.068948
-200.0000,-0.0273127
-199.0000,0.0195871
-198.0000,0.0632196
-197.0000,0.0959279
-196.0000,0.112437
-195.0000,0.109965
-194.0000,0.0889061
-193.0000,0.0520832
-192.0000,0.00498539
-191.0000,-0.0451816
-190.0000,-0.089827
-189.0000,-0.120721
-188.0000,-0.131648
-187.0000,-0.120583
-186.0000,-0.0901358
-185.0000,-0.0475416
-184.0000,-0.00218532
-183.0000,0.0364423
-182.0000,0.0617667
-181.0000,0.0707395
-180.0000,0.0643255
-179.0000,0.0461133
-178.0000,0.0215673
-177.0000,-0.00338147
-176.0000,-0.0227872
-175.0000,-0.0322772
-174.0000,-0.0295468
-173.0000,-0.0153619
-172.0000,0.00698229
-171.0000,0.0315663
-170.0000,0.0515088
-169.0000,0.0602467
-168.0000,0.0535973
-167.0000,0.0307966
-166.0000,-0.00412477
-165.0000,-0.0431509
-164.0000,-0.0757389
-163.0000,-0.0925454
-162.0000,-0.0879621
-161.0000,-0.0621816
-160.0000,-0.0203023
-159.0000,0.0292742
-158.0000,0.077528
-157.0000,0.115904
-156.0000,0.13783
-155.0000,0.139037
-154.0000,0.118445
-153.0000,0.0780193
-152.0000,0.0234809
-151.0000,-0.0367312
-150.0000,-0.0924033
-149.0000,-0.133931
-148.0000,-0.153445
-147.0000,-0.147107
-146.0000,-0.116044
-145.0000,-0.0672968
-144.0000,-0.0119194
-143.0000,0.0373495
-142.0000,0.0704913
-141.0000,0.0827355
-140.0000,0.0754861
-139.0000,0.0540744
-138.0000,0.0258094
-137.0000,-0.00245897
-136.0000,-0.0249581
-135.0000,-0.0378911
-134.0000,-0.0384219
-133.0000,-0.0259982
-132.0000,-0.002497
-131.0000,0.0272418
-130.0000,0.0568474
-129.0000,0.0791669
-128.0000,0.0879742
-127.0000,0.0791953
-126.0000,0.0526257
-125.0000,0.0123288
-124.0000,-0.0331502
-123.0000,-0.0728592
-122.0000,-0.0966046
-121.0000,-0.0988736
-120.0000,-0.0798834
-119.0000,-0.0457214
-118.0000,-0.00576526
-117.0000,0.0298189
-116.0000,0.0531079
-115.0000,0.0588601
-114.0000,0.0452271
-113.0000,0.0139066
-112.0000,-0.0292612
-111.0000,-0.0759361
-110.0000,-0.116097
-109.0000,-0.140091
-108.0000,-0.140452
-107.0000,-0.114083
-106.0000,-0.062593
-105.0000,0.00694633
-104.0000,0.0830621
-103.0000,0.151788
-102.0000,0.200809
-101.0000,0.221993
-100.0000,0.213443
-99.0000,0.179218
-98.0000,0.127841
-97.0000,0.0690018
-96.0000,0.0122169
-95.0000,-0.0343389
-94.0000,-0.0647607
-93.0000,-0.077028
-92.0000,-0.0725843
-91.0000,-0.0565792
-90.0000,-0.0364985
-89.0000,-0.0210409
-88.0000,-0.0169957
-87.0000,-0.0284188
-86.0000,-0.0553003
-85.0000,-0.0931857
-84.0000,-0.133023
-83.0000,-0.164306
-82.0000,-0.177772
-81.0000,-0.168318
-80.0000,-0.136029
-79.0000,-0.0858095
-78.0000,-0.0242229
-77.0000,0.04165
-76.0000,0.104345
-75.0000,0.155503
-74.0000,0.187753
-73.0000,0.195406
-72.0000,0.176576
-71.0000,0.134613
-70.0000,0.078665
-69.0000,0.0200807
-68.0000,-0.0299109
-67.0000,-0.0624528
-66.0000,-0.0729914
-65.0000,-0.0640767
-64.0000,-0.0444661
-63.0000,-0.0264244
-62.0000,-0.0209142
-61.0000,-0.0330158
-60.0000,-0.0589486
-59.0000,-0.0898143
-58.0000,-0.116624
-57.0000,-0.133216
-56.0000,-0.135892
-55.0000,-0.123235
-54.0000,-0.093848
-53.0000,-0.0457555
-52.0000,0.0211617
-51.0000,0.101003
-50.0000,0.182908
-49.0000,0.253499
-48.0000,0.298838
-47.0000,0.306571
-46.0000,0.271227
-45.0000,0.19657
-44.0000,0.0965136
-43.0000,-0.00706842
-42.0000,-0.0909001
-41.0000,-0.141285
-40.0000,-0.158392
-39.0000,-0.151796
-38.0000,-0.132277
-37.0000,-0.106322
-36.0000,-0.0716617
-35.0000,-0.02088
-34.0000,0.0490519
-33.0000,0.13136
-32.0000,0.213275
-31.0000,0.277521
-30.0000,0.304557
-29.0000,0.281988
-28.0000,0.214992
-27.0000,0.124115
-26.0000,0.0370736
-25.0000,-0.0208832
-24.0000,-0.0374767
-23.0000,-0.020693
-22.0000,0.00836031
-21.0000,0.0284754
-20.0000,0.0279054
-19.0000,0.0097698
-18.0000,-0.00766916
-17.0000,-0.0102247
-16.0000,-0.00929264
-15.0000,-0.0384289
-14.0000,-0.138306
-13.0000,-0.361486
-12.0000,-0.770539
-11.0000,-1.38988
-10.0000,-2.13718
-9.0000,-2.81925
-8.0000,-3.22662
-7.0000,-3.25278
-6.0000,-2.89924
-5.0000,-2.12117
-4.0000,-0.683814
-3.0000,1.67513
-2.0000,4.74447
-1.0000,7.51769
0.0000,8.65631
1.0000,7.5246
2.0000,4.75229
3.0000,1.67701
4.0000,-0.690906
5.0000,-2.13657
6.0000,-2.92135
7.0000,-3.27958
8.0000,-3.25412
9.0000,-2.84159
10.0000,-2.14925
11.0000,-1.38945
12.0000,-0.758403
13.0000,-0.340379
14.0000,-0.111761
15.0000,-0.0103165
16.0000,0.0155664
17.0000,0.00497514
18.0000,-0.0083951
19.0000,-0.00894661
20.0000,-0.00443195
21.0000,-0.00927112
22.0000,-0.0274032
23.0000,-0.0501008
24.0000,-0.0582366
25.0000,-0.0310338
26.0000,0.0397571
27.0000,0.140778
28.0000,0.243562
29.0000,0.316616
30.0000,0.337682
31.0000,0.302729
32.0000,0.227048
33.0000,0.133393
34.0000,0.0411762
35.0000,-0.0364461
36.0000,-0.0929388
37.0000,-0.130748
38.0000,-0.156445
39.0000,-0.172538
40.0000,-0.173539
41.0000,-0.149543
42.0000,-0.0917442
43.0000,-0.000884276
44.0000,0.108582
45.0000,0.212714
46.0000,0.288873
47.0000,0.322986
48.0000,0.312016
49.0000,0.262249
50.0000,0.186541
51.0000,0.099564
52.0000,0.0157462
53.0000,-0.0532329
54.0000,-0.100904
55.0000,-0.127134
56.0000,-0.134524
57.0000,-0.125812
58.0000,-0.103592
59.0000,-0.0723635
60.0000,-0.0390529
61.0000,-0.0132746
62.0000,-0.0038814
63.0000,-0.0141809
64.0000,-0.0384036
65.0000,-0.0643742
66.0000,-0.0784755
67.0000,-0.0712621
68.0000,-0.0399965
69.0000,0.0106546
70.0000,0.0712911
71.0000,0.129687
72.0000,0.173568
73.0000,0.193279
74.0000,0.185083
75.0000,0.150959
76.0000,0.0971893
77.0000,0.0318046
78.0000,-0.0365018
79.0000,-0.0999702
80.0000,-0.151075
81.0000,-0.182951
82.0000,-0.190626
83.0000,-0.173986
84.0000,-0.138493
85.0000,-0.0942378
86.0000,-0.0524295
87.0000,-0.0224828
88.0000,-0.00905911
89.0000,-0.0120943
90.0000,-0.0272288
91.0000,-0.0474152
92.0000,-0.0639866
93.0000,-0.0692542
94.0000,-0.0577645
95.0000,-0.0278364
96.0000,0.0186046
97.0000,0.0757732
98.0000,0.135405
99.0000,0.187415
100.0000,0.221648
101.0000,0.229368
102.0000,0.206383
103.0000,0.154661
104.0000,0.0827211
105.0000,0.00337439
106.0000,-0.0691093
107.0000,-0.122956
108.0000,-0.150808
109.0000,-0.15092
110.0000,-0.126583
111.0000,-0.0855449
112.0000,-0.0376789
113.0000,0.0066024
114.0000,0.0388675
115.0000,0.0534832
116.0000,0.0488013
117.0000,0.0265483
118.0000,-0.00817214
119.0000,-0.0476111
120.0000,-0.0818563
121.0000,-0.101323
122.0000,-0.0993504
123.0000,-0.0752343
124.0000,-0.0343484
125.0000,0.0129886
126.0000,0.0555625
127.0000,0.0842416
128.0000,0.0945097
129.0000,0.0864476
130.0000,0.0641959
131.0000,0.0340886
132.0000,0.00355561
133.0000,-0.0207757
134.0000,-0.0339516
135.0000,-0.0339466
136.0000,-0.0212969
137.0000,0.001103
138.0000,0.0291817
139.0000,0.0571956
140.0000,0.0782587
141.0000,0.084994
142.0000,0.0721681
143.0000,0.0385836
144.0000,-0.0109291
145.0000,-0.0665688
146.0000,-0.115816
147.0000,-0.147569
148.0000,-0.154781
149.0000,-0.136116
150.0000,-0.0951777
151.0000,-0.0396251
152.0000,0.0208651
153.0000,0.075945
154.0000,0.116956
155.0000,0.137992
156.0000,0.137089
157.0000,0.115388
158.0000,0.0772312
159.0000,0.0291673
160.0000,-0.0201859
161.0000,-0.061783
162.0000,-0.0873731
163.0000,-0.0919908
164.0000,-0.0754047
165.0000,-0.0431782
166.0000,-0.00463565
167.0000,0.029903
168.0000,0.052722
169.0000,0.0598194
170.0000,0.0518145
171.0000,0.0325204
172.0000,0.00815069
173.0000,-0.014699
174.0000,-0.0301014
175.0000,-0.0344472
176.0000,-0.0265066
177.0000,-0.0080962
178.0000,0.0166373
179.0000,0.0417045
180.0000,0.0608272
181.0000,0.0681496
182.0000,0.0599072
183.0000,0.0349835
184.0000,-0.00358405
185.0000,-0.0490035
186.0000,-0.0916307
187.0000,-0.121947
188.0000,-0.132786
189.0000,-0.121547
190.0000,-0.0903202
191.0000,-0.0454521
192.0000,0.0049146
193.0000,0.0522125
194.0000,0.0894005
195.0000,0.111099
196.0000,0.114443
197.0000,0.0989766
198.0000,0.0672538
199.0000,0.0242853
200.0000,-0.022409
201.0000,-0.0644237
202.0000,-0.093495
203.0000,-0.104075
204.0000,-0.094447
205.0000,-0.0677834
206.0000,-0.0310097
207.0000,0.00668605
208.0000,0.0367576
209.0000,0.0533115
210.0000,0.0550697
211.0000,0.0449729
212.0000,0.028848
213.0000,0.0127567
214.0000,0.0017458
215.0000,-0.00151938
216.0000,0.00358415
217.0000,0.0156614
218.0000,0.0324481
219.0000,0.0506571
220.0000,0.0663443
221.0000,0.0746722
222.0000,0.0713736
223.0000,0.0537866
224.0000,0.0224717
225.0000,-0.018758
226.0000,-0.0626709
227.0000,-0.10048
228.0000,-0.123449
229.0000,-0.125974
230.0000,-0.106862
231.0000,-0.0702201
232.0000,-0.0239424
233.0000,0.022257
234.0000,0.0598667
235.0000,0.0832132
236.0000,0.0907998
237.0000,0.0837172
238.0000,0.0648798
239.0000,0.0377104
240.0000,0.00644231
241.0000,-0.0241164
242.0000,-0.0486922
243.0000,-0.0627831
244.0000,-0.0634248
245.0000,-0.0506076
246.0000,-0.0272774
247.0000,0.00071049
248.0000,0.0264308
249.0000,0.0432349
250.0000,0.0471139
251.0000,0.0374774
252.0000,0.0180708
253.0000,-0.00449262
254.0000,-0.0227296
255.0000,-0.0314333
256.0000,-0.028921
257.0000,-0.0172869
258.0000,-0.000421393
259.0000,0.0171137
260.0000,0.0316859
261.0000,0.0405077
262.0000,0.0418049
263.0000,0.034258
264.0000,0.0178549
265.0000,-0.00600504
266.0000,-0.0337135
267.0000,-0.0603787
268.0000,-0.0802142
269.0000,-0.0881877
270.0000,-0.0806406
271.0000,-0.057108
272.0000,-0.0208075
273.0000,0.021123
274.0000,0.0596923
275.0000,0.0865023
276.0000,0.0966775
277.0000,0.0896656
278.0000,0.0692141
279.0000,0.0410621
280.0000,0.0112838
281.0000,-0.0156204
282.0000,-0.0363752
283.0000,-0.0491854
284.0000,-0.0530199
285.0000,-0.0483125
286.0000,-0.0365379
287.0000,-0.0205023
288.0000,-0.00340483
289.0000,0.011118
290.0000,0.0198415
291.0000,0.0202614
292.0000,0.0122041
293.0000,-0.00205977
294.0000,-0.0175154
295.0000,-0.028307
296.0000,-0.0296606
297.0000,-0.0202681
298.0000,-0.00239928
299.0000,0.0186556
300.0000,0.0372302
301.0000,0.048783
302.0000,0.0512797
303.0000,0.0445354
304.0000,0.0301401
305.0000,0.0105234
306.0000,-0.0108267
307.0000,-0.0305813
308.0000,-0.0455238
309.0000,-0.0534289
310.0000,-0.0526769
311.0000,-0.0426791
312.0000,-0.0237574
313.0000,0.00179597
314.0000,0.0298771
315.0000,0.0543777
316.0000,0.0691763
317.0000,0.0699741
318.0000,0.0564548
319.0000,0.0321495
320.0000,0.00340679
321.0000,-0.0234756
322.0000,-0.043426
323.0000,-0.0540162
324.0000,-0.0548285
325.0000,-0.0475245
326.0000,-0.0347572
327.0000,-0.0198967
328.0000,-0.00574178
329.0000,0.00546363
330.0000,0.0126789
331.0000,0.015458
332.0000,0.0139093
333.0000,0.00829962
334.0000,-0.00012444
335.0000,-0.00904337
336.0000,-0.0148351
337.0000,-0.0142882
338.0000,-0.00611983
339.0000,0.00782143
340.0000,0.0235294
341.0000,0.0358821
342.0000,0.0410481
343.0000,0.0371398
344.0000,0.0251341
345.0000,0.00766688
346.0000,-0.0112745
347.0000,-0.0278745
348.0000,-0.0388864
349.0000,-0.0426159
350.0000,-0.0389805
351.0000,-0.0296147
352.0000,-0.0164921
353.0000,-0.0014312
354.0000,0.0144294
355.0000,0.0294168
356.0000,0.0412623
357.0000,0.0468198
358.0000,0.0439212
359.0000,0.0321423
360.0000,0.0139147
361.0000,-0.00636735
362.0000,-0.0235727
363.0000,-0.0339731
364.0000,-0.0358928
365.0000,-0.0301374
366.0000,-0.0189289
367.0000,-0.00578751
368.0000,0.0059772
369.0000,0.013521
370.0000,0.0158388
371.0000,0.0135513
372.0000,0.00869224
373.0000,0.00304639
374.0000,-0.00211016
375.0000,-0.0064627
376.0000,-0.00954553
377.0000,-0.0106367
378.0000,-0.00841859
379.0000,-0.00223112
380.0000,0.00735613
381.0000,0.0176778
382.0000,0.0252293
383.0000,0.0267609
384.0000,0.0209829
385.0000,0.00848208
386.0000,-0.00803809
387.0000,-0.0249723
388.0000,-0.0381559
389.0000,-0.044456
390.0000,-0.0422776
391.0000,-0.0326085
392.0000,-0.0181807
393.0000,-0.00269006
394.0000,0.0110463
395.0000,0.0214102
396.0000,0.0283711
397.0000,0.0321071
398.0000,0.0325658
399.0000,0.0290107
400.0000,0.0211725
401.0000,0.00977709
402.0000,-0.00281268
403.0000,-0.013784
404.0000,-0.0204903
405.0000,-0.0217398
406.0000,-0.0176174
407.0000,-0.00988533
408.0000,-0.00100023
409.0000,0.0061349
410.0000,0.00951179
411.0000,0.00846827
412.0000,0.00444683
413.0000,-7.13285E-005
414.0000,-0.00231721
415.0000,-0.0011788
416.0000,0.00286848
417.0000,0.00763814
418.0000,0.0112211
419.0000,0.0125411
420.0000,0.0120415
421.0000,0.0104421
422.0000,0.00826968
423.0000,0.00513959
424.0000,0.000490046
425.0000,-0.00630444
426.0000,-0.014941
427.0000,-0.024436
428.0000,-0.0326525
429.0000,-0.0372968
430.0000,-0.0360896
431.0000,-0.028132
432.0000,-0.0142316
433.0000,0.00257113
434.0000,0.0182942
435.0000,0.0290252
436.0000,0.0329676
437.0000,0.0306216
438.0000,0.0242163
439.0000,0.0162042
440.0000,0.00838102
441.0000,0.00127329
442.0000,-0.00490153
443.0000,-0.0101835
444.0000,-0.0139505
445.0000,-0.0155419
446.0000,-0.0140919
447.0000,-0.0095618
448.0000,-0.00248464
449.0000,0.00550915
450.0000,0.0123971
451.0000,0.015942
452.0000,0.0149866
453.0000,0.00985211
454.0000,0.00292284
455.0000,-0.00277007
456.0000,-0.00477426
457.0000,-0.00282023
458.0000,0.00158099
459.0000,0.00556235
460.0000,0.00688558
461.0000,0.00451805
462.0000,-0.000676239
463.0000,-0.0068547
464.0000,-0.0118595
465.0000,-0.0145276
466.0000,-0.0143844
467.0000,-0.0121511
468.0000,-0.00865583
469.0000,-0.00503518
470.0000,-0.00164264
471.0000,0.0015798
472.0000,0.00555653
473.0000,0.0104065
474.0000,0.01546
475.0000,0.0186968
476.0000,0.018124
477.0000,0.0124528
478.0000,0.00243826
479.0000,-0.00953095
480.0000,-0.0198334
481.0000,-0.0257213
482.0000,-0.0259108
483.0000,-0.0213351
484.0000,-0.0139452
485.0000,-0.00610313
486.0000,0.000543367
487.0000,0.0051396
488.0000,0.0080837
489.0000,0.0101277
490.0000,0.0122703
491.0000,0.0144286
492.0000,0.0159095
493.0000,0.0154093
494.0000,0.0122715
495.0000,0.00673608
496.0000,0.000466576
497.0000,-0.00442319
498.0000,-0.0060563
499.0000,-0.00444234
500.0000,-0.00108736
501.0000,0.00140261
502.0000,0.00123349
503.0000,-0.00219907
504.0000,-0.00765048
505.0000,-0.0129815
506.0000,-0.0156073
507.0000,-0.0139384
508.0000,-0.00760663
509.0000,0.00182633
510.0000,0.0120334
511.0000,0.020279
512.0000,0.0248571
513.0000,0.0251151
514.0000,0.0219373
515.0000,0.0165856
516.0000,0.0102982
517.0000,0.00323019
518.0000,-0.00492244
519.0000,-0.0143286
520.0000,-0.0238217
521.0000,-0.0315807
522.0000,-0.0351997
523.0000,-0.0333223
524.0000,-0.0257372
525.0000,-0.0142299
526.0000,-0.00159642
527.0000,0.00897291
528.0000,0.0154589
529.0000,0.0170728
530.0000,0.014872
531.0000,0.010804
532.0000,0.00748881
533.0000,0.00649173
534.0000,0.00814455
535.0000,0.0109375
536.0000,0.0129775
537.0000,0.0126892
538.0000,0.00995188
539.0000,0.00550708
540.0000,0.000805375
541.0000,-0.00328399
542.0000,-0.00653959
543.0000,-0.00954617
544.0000,-0.0127556
545.0000,-0.016197
546.0000,-0.0188753
547.0000,-0.019581
548.0000,-0.0169236
549.0000,-0.0104352
550.0000,-0.000479751
551.0000,0.0110562
552.0000,0.0214571
553.0000,0.0276778
554.0000,0.0279845
555.0000,0.0223167
556.0000,0.0126387
557.0000,0.00154395
558.0000,-0.00827361
559.0000,-0.0154492
560.0000,-0.0195058
561.0000,-0.0210041
562.0000,-0.0203203
563.0000,-0.0177626
564.0000,-0.013238
565.0000,-0.00707381
566.0000,0.000198344
567.0000,0.00737353
568.0000,0.0132649
569.0000,0.0163544
570.0000,0.0157919
571.0000,0.0115191
572.0000,0.00508177
573.0000,-0.00121395
574.0000,-0.00479133
575.0000,-0.00444376
576.0000,-0.00027976
577.0000,0.00570987
578.0000,0.0110625
579.0000,0.0135588
580.0000,0.0123314
581.0000,0.00757939
582.0000,0.000658895
583.0000,-0.00706647
584.0000,-0.0139791
585.0000,-0.0189519
586.0000,-0.021078
587.0000,-0.0202412
588.0000,-0.0164889
589.0000,-0.0103749
590.0000,-0.00218055
591.0000,0.00719482
592.0000,0.0165148
593.0000,0.0237793
594.0000,0.0271429
595.0000,0.0252409
596.0000,0.018382
597.0000,0.00815945
598.0000,-0.00259845
599.0000,-0.0113806
600.0000,-0.0164075
601.0000,-0.0174237
602.0000,-0.0148004
603.0000,-0.00984848
604.0000,-0.00392659
605.0000,0.00133993
606.0000,0.00498644
607.0000,0.00646201
608.0000,0.00597702
609.0000,0.00381171
610.0000,0.000479093
611.0000,-0.00384261
612.0000,-0.00853964
613.0000,-0.0126439
614.0000,-0.0145042
615.0000,-0.0127722
616.0000,-0.00685918
617.0000,0.00198058
618.0000,0.0115191
619.0000,0.0190194
620.0000,0.0226945
621.0000,0.0216286
622.0000,0.0161602
623.0000,0.00726223
624.0000,-0.00326056
625.0000,-0.0135625
626.0000,-0.0215674
627.0000,-0.0260056
628.0000,-0.0263103
629.0000,-0.0229522
630.0000,-0.0166419
631.0000,-0.00845916
632.0000,0.000937314
633.0000,0.0103394
634.0000,0.0181776
635.0000,0.0225045
636.0000,0.0223324
637.0000,0.0179226
638.0000,0.0113196
639.0000,0.00493805
640.0000,0.00095398
641.0000,7.74096E-005
642.0000,0.00204762
643.0000,0.00546034
644.0000,0.00893115
645.0000,0.0108559
646.0000,0.0101443
647.0000,0.00602764
648.0000,-0.00106543
649.0000,-0.00989178
650.0000,-0.0183859
651.0000,-0.0250199
652.0000,-0.0287165
653.0000,-0.0292607
654.0000,-0.026283
655.0000,-0.0194518
656.0000,-0.00848415
657.0000,0.00571682
658.0000,0.0210605
659.0000,0.0341958
660.0000,0.0421634
661.0000,0.0430079
662.0000,0.0368281
663.0000,0.0249677
664.0000,0.00971787
665.0000,-0.00655993
666.0000,-0.0213036
667.0000,-0.0324124
668.0000,-0.0381457
669.0000,-0.0382722
670.0000,-0.0334492
671.0000,-0.0253485
672.0000,-0.0153204
673.0000,-0.00460003
674.0000,0.00596587
675.0000,0.0150385
676.0000,0.0212174
677.0000,0.0232082
678.0000,0.0210676
679.0000,0.0160672
680.0000,0.0106397
681.0000,0.00663959
682.0000,0.00499764
683.0000,0.00506697
684.0000,0.00573126
685.0000,0.00571613
686.0000,0.00421143
687.0000,0.000585504
688.0000,-0.00511578
689.0000,-0.0124205
690.0000,-0.0197708
691.0000,-0.0253084
692.0000,-0.0271834
693.0000,-0.0246474
694.0000,-0.0180009
695.0000,-0.00848543
696.0000,0.00275568
697.0000,0.0145172
698.0000,0.0258439
699.0000,0.03494
700.0000,0.0397355
701.0000,0.0383247
702.0000,0.0303306
703.0000,0.0167884
704.0000,0.000385562
705.0000,-0.016068
706.0000,-0.0297511
707.0000,-0.0387785
708.0000,-0.0417809
709.0000,-0.0384575
710.0000,-0.0293249
711.0000,-0.0163673
712.0000,-0.0021046
713.0000,0.0106051
714.0000,0.0199942
715.0000,0.0253068
716.0000,0.0266838
717.0000,0.0243099
718.0000,0.0188326
719.0000,0.0110427
720.0000,0.0025764
721.0000,-0.0046985
722.0000,-0.00901229
723.0000,-0.00986987
724.0000,-0.00776549
725.0000,-0.00420321
726.0000,-0.000524415
727.0000,0.00208075
728.0000,0.003205
729.0000,0.00240597
730.0000,-0.000228606
731.0000,-0.00431233
732.0000,-0.00844487
733.0000,-0.0111213
734.0000,-0.0109926
735.0000,-0.00777232
736.0000,-0.00200017
737.0000,0.0048694
738.0000,0.0115627
739.0000,0.0166781
740.0000,0.0193713
741.0000,0.0187129
742.0000,0.0143497
743.0000,0.00650379
744.0000,-0.00311046
745.0000,-0.0123895
746.0000,-0.019105
747.0000,-0.0220796
748.0000,-0.0209813
749.0000,-0.0164734
750.0000,-0.00940527
751.0000,-0.00111192
752.0000,0.00716233
753.0000,0.0137966
754.0000,0.0173841
755.0000,0.0168157
756.0000,0.0122429
757.0000,0.00471512
758.0000,-0.00385408
759.0000,-0.0117485
760.0000,-0.0174188
761.0000,-0.0198229
762.0000,-0.0180596
763.0000,-0.0123028
764.0000,-0.00348889
765.0000,0.00635286
766.0000,0.015079
767.0000,0.0206798
768.0000,0.0222848
769.0000,0.0198633
770.0000,0.0144077
771.0000,0.00693999
772.0000,-0.00128471
773.0000,-0.009223
774.0000,-0.0153769
775.0000,-0.0185296
776.0000,-0.0178872
777.0000,-0.0138647
778.0000,-0.0074927
779.0000,-0.000438854
780.0000,0.00588946
781.0000,0.0101325
782.0000,0.011655
783.0000,0.0101143
784.0000,0.00611101
785.0000,0.000727039
786.0000,-0.00428815
787.0000,-0.00737378
788.0000,-0.00741501
789.0000,-0.00447101
790.0000,0.000586741
791.0000,0.00633034
792.0000,0.0116629
793.0000,0.0154085
794.0000,0.016743
795.0000,0.0148721
796.0000,0.00962637
797.0000,0.00147245
798.0000,-0.0079865
799.0000,-0.0169185
800.0000,-0.0232414
801.0000,-0.025732
802.0000,-0.0238102
803.0000,-0.0181445
804.0000,-0.00964945
805.0000,1.90423E-005
806.0000,0.00916776
807.0000,0.0159773
808.0000,0.0193707
809.0000,0.0190229
810.0000,0.0157843
811.0000,0.010728
812.0000,0.00513077
813.0000,-0.000289924
814.0000,-0.00471654
815.0000,-0.00771059
816.0000,-0.00867036
817.0000,-0.00749893
818.0000,-0.00443217
819.0000,-0.000655213
820.0000,0.00247636
821.0000,0.00355227
822.0000,0.00216056
823.0000,-0.00135815
824.0000,-0.00591793
825.0000,-0.0103434
826.0000,-0.0130832
827.0000,-0.0130893
828.0000,-0.00971723
829.0000,-0.00346524
830.0000,0.00470803
831.0000,0.0129533
832.0000,0.0197203
833.0000,0.0236641
834.0000,0.0242968
835.0000,0.0214712
836.0000,0.0154876
837.0000,0.00662474
838.0000,-0.00424127
839.0000,-0.0156619
840.0000,-0.0254139
841.0000,-0.0314923
842.0000,-0.0323088
843.0000,-0.0276788
844.0000,-0.0183413
845.0000,-0.00633535
846.0000,0.00612529
847.0000,0.0165446
848.0000,0.0232954
849.0000,0.0253383
850.0000,0.0229653
851.0000,0.0172429
852.0000,0.0100925
853.0000,0.00301535
854.0000,-0.00281856
855.0000,-0.00716454
856.0000,-0.00969948
857.0000,-0.0104688
858.0000,-0.00940997
859.0000,-0.00692404
860.0000,-0.00368392
861.0000,-0.000833072
862.0000,0.000676534
863.0000,0.000148561
864.0000,-0.00203866
865.0000,-0.00495903
866.0000,-0.00723935
867.0000,-0.00792868
868.0000,-0.00618363
869.0000,-0.00191427
870.0000,0.004372
871.0000,0.0111096
872.0000,0.0166355
873.0000,0.0193661
874.0000,0.0187475
875.0000,0.0149667
876.0000,0.0090182
877.0000,0.00194007
878.0000,-0.00507538
879.0000,-0.0114981
880.0000,-0.0165659
881.0000,-0.0196389
882.0000,-0.0198412
883.0000,-0.0168842
884.0000,-0.0109833
885.0000,-0.00327368
886.0000,0.00492058
887.0000,0.0119755
888.0000,0.016555
889.0000,0.0174574
890.0000,0.0146381
891.0000,0.00876639
892.0000,0.00161305
893.0000,-0.0049819
894.0000,-0.00920399
895.0000,-0.0102966
896.0000,-0.0083748
897.0000,-0.00460027
898.0000,-3.97179E-005
899.0000,0.00419835
900.0000,0.00741256
901.0000,0.00880656
902.0000,0.00799573
903.0000,0.00480352
904.0000,-0.000200928
905.0000,-0.00624362
906.0000,-0.0119981
907.0000,-0.0164429
908.0000,-0.0184237
909.0000,-0.0173818
910.0000,-0.012949
911.0000,-0.00570251
912.0000,0.00322624
913.0000,0.0118333
914.0000,0.0182115
915.0000,0.0208183
916.0000,0.0194624
917.0000,0.0147717
918.0000,0.00829794
919.0000,0.00143676
920.0000,-0.00446475
921.0000,-0.00856734
922.0000,-0.010302
923.0000,-0.00978244
924.0000,-0.00744629
925.0000,-0.00429738
926.0000,-0.00104067
927.0000,0.00157468
928.0000,0.00333324
929.0000,0.00395572
930.0000,0.00344002
931.0000,0.0016228
932.0000,-0.00117335
933.0000,-0.00443458
934.0000,-0.00681969
935.0000,-0.00728434
936.0000,-0.00507144
937.0000,-0.000665762
938.0000,0.0049663
939.0000,0.0103496
940.0000,0.0142305
941.0000,0.0154146
942.0000,0.0134658
943.0000,0.00853518
944.0000,0.0018201
945.0000,-0.00528629
946.0000,-0.0110648
947.0000,-0.0145494
948.0000,-0.0152753
949.0000,-0.0137994
950.0000,-0.0107337
951.0000,-0.00659867
952.0000,-0.00152866
953.0000,0.00392142
954.0000,0.00894164
955.0000,0.0122305
956.0000,0.0129476
957.0000,0.0105051
958.0000,0.00539272
959.0000,-0.00139034
960.0000,-0.00800884
961.0000,-0.0128546
962.0000,-0.0143815
963.0000,-0.0119872
964.0000,-0.00601735
965.0000,0.0018024
966.0000,0.00930445
967.0000,0.01425
968.0000,0.0157774
969.0000,0.0140702
970.0000,0.0104133
971.0000,0.00586392
972.0000,0.00124396
973.0000,-0.00334298
974.0000,-0.00766386
975.0000,-0.0115326
976.0000,-0.0142631
977.0000,-0.015276
978.0000,-0.0139559
979.0000,-0.0103498
980.0000,-0.00472318
981.0000,0.00171366
982.0000,0.00747729
983.0000,0.0108422
984.0000,0.0109934
985.0000,0.00813282
986.0000,0.00399431
987.0000,0.000686995
988.0000,2.22207E-005
989.0000,0.00200837
990.0000,0.00547756
991.0000,0.00830362
992.0000,0.00897821
993.0000,0.00678584
994.0000,0.00226652
995.0000,-0.0035743
996.0000,-0.00930143
997.0000,-0.013905
998.0000,-0.0166746
999.0000,-0.0177335
1000.0000,-0.0173785
1001.0000,-0.0160433
1002.0000,-0.0134911
1003.0000,-0.00928443
1004.0000,-0.00237198
1005.0000,0.00734562
1006.0000,0.0187159
1007.0000,0.0288785
1008.0000,0.034808
1009.0000,0.0342584
1010.0000,0.0272372
1011.0000,0.0154563
1012.0000,0.00196551
1013.0000,-0.0103033
1014.0000,-0.0190891
1015.0000,-0.0236093
1016.0000,-0.0240896
1017.0000,-0.0217787
1018.0000,-0.0178763
1019.0000,-0.0134429
1020.0000,-0.00854801
1021.0000,-0.00297638
1022.0000,0.00378804
1023.0000,0.0111714
1024.0000,0.017776
1025.0000,0.0213454
1026.0000,0.0205428
1027.0000,0.0154914
1028.0000,0.00817125
1029.0000,0.00107878
1030.0000,-0.00358092
1031.0000,-0.00521083
1032.0000,-0.00433455
1033.0000,-0.002662
1034.0000,-0.00183541
1035.0000,-0.00309697
1036.0000,-0.00637163
1037.0000,-0.010712
1038.0000,-0.0142347
1039.0000,-0.0152663
1040.0000,-0.0127309
1041.0000,-0.00722728
1042.0000,-0.00052211
1043.0000,0.00513651
1044.0000,0.0085519
1045.0000,0.00977375
1046.0000,0.0100261
1047.0000,0.0101024
1048.0000,0.0102218
1049.0000,0.00957097
1050.0000,0.00723002
1051.0000,0.00246628
1052.0000,-0.00421759
1053.0000,-0.0115604
1054.0000,-0.0174877
1055.0000,-0.0202056
1056.0000,-0.0183246
1057.0000,-0.0118338
1058.0000,-0.00196441
1059.0000,0.00850597
1060.0000,0.0167119
1061.0000,0.0204567
1062.0000,0.0195414
1063.0000,0.015241
1064.0000,0.00955342
1065.0000,0.00388183
1066.0000,-0.00105766
1067.0000,-0.00548201
1068.0000,-0.00959907
1069.0000,-0.0133191
1070.0000,-0.0158519
1071.0000,-0.0164562
1072.0000,-0.0143279
1073.0000,-0.00946352
1074.0000,-0.00221188
1075.0000,0.00614156
1076.0000,0.013876
1077.0000,0.0188443
1078.0000,0.0197958
1079.0000,0.0166608
1080.0000,0.0110618
1081.0000,0.00513003
1082.0000,0.000744737
1083.0000,-0.00162714
1084.0000,-0.0024524
1085.0000,-0.00310018
1086.0000,-0.0045355
1087.0000,-0.00718112
1088.0000,-0.0105352
1089.0000,-0.0139488
1090.0000,-0.0162864
1091.0000,-0.016772
1092.0000,-0.0146844
1093.0000,-0.0102737
1094.0000,-0.00428417
1095.0000,0.0017939
1096.0000,0.00705881
1097.0000,0.0111685
1098.0000,0.0146336
1099.0000,0.0178449
1100.0000,0.0207929
1101.0000,0.0224738
1102.0000,0.0216816
1103.0000,0.0172992
1104.0000,0.00941929
1105.0000,-0.00110196
1106.0000,-0.0123311
1107.0000,-0.0222883
1108.0000,-0.0288759
1109.0000,-0.0309173
1110.0000,-0.0279251
1111.0000,-0.0209555
1112.0000,-0.0117668
1113.0000,-0.00262516
1114.0000,0.0051447
1115.0000,0.0109154
1116.0000,0.0151414
1117.0000,0.0182252
1118.0000,0.0203782
1119.0000,0.0210956
1120.0000,0.0199349
1121.0000,0.0165153
1122.0000,0.0112513
1123.0000,0.00483908
1124.0000,-0.00149017
1125.0000,-0.006823
1126.0000,-0.0103579
1127.0000,-0.011963
1128.0000,-0.0120155
1129.0000,-0.0116549
1130.0000,-0.0118071
1131.0000,-0.0130524
1132.0000,-0.0147407
1133.0000,-0.0156861
1134.0000,-0.0144429
1135.0000,-0.010453
1136.0000,-0.00391263
1137.0000,0.00384481
1138.0000,0.0113751
1139.0000,0.0171043
1140.0000,0.0203312
1141.0000,0.0207071
1142.0000,0.0186389
1143.0000,0.0147331
1144.0000,0.00991041
1145.0000,0.00463821
1146.0000,-0.000738232
1147.0000,-0.00625944
1148.0000,-0.0115784
1149.0000,-0.016173
1150.0000,-0.0189595
1151.0000,-0.0191794
1152.0000,-0.0163681
1153.0000,-0.0111144
1154.0000,-0.00441962
1155.0000,0.00215732
1156.0000,0.00742546
1157.0000,0.0105269
1158.0000,0.011444
1159.0000,0.010504
1160.0000,0.00873159
1161.0000,0.00698399
1162.0000,0.00604361
1163.0000,0.00579478
1164.0000,0.00586202
1165.0000,0.00547709
1166.0000,0.00442293
1167.0000,0.00263905
1168.0000,0.00058596
1169.0000,-0.0014778
1170.0000,-0.00319588
1171.0000,-0.00465016
1172.0000,-0.00569686
1173.0000,-0.00646564
1174.0000,-0.00678854
1175.0000,-0.0067115
1176.0000,-0.00608342
1177.0000,-0.00479907
1178.0000,-0.00252332
1179.0000,0.000643631
1180.0000,0.00432577
1181.0000,0.00730673
1182.0000,0.00864885
1183.0000,0.00763795
1184.0000,0.00457751
1185.0000,0.000197014
1186.0000,-0.00415996
1187.0000,-0.00755206
1188.0000,-0.00918375
1189.0000,-0.00884671
1190.0000,-0.00666649
1191.0000,-0.00335759
1192.0000,0.000230556
1193.0000,0.00302212
1194.0000,0.00459618
1195.0000,0.00500341
1196.0000,0.00495457
1197.0000,0.00482728
1198.0000,0.00468341
1199.0000,0.00387802
1200.0000,0.00195094
1201.0000,-0.00120939
1202.0000,-0.00467155
1203.0000,-0.00740157
1204.0000,-0.00830062
1205.0000,-0.0071086
1206.0000,-0.00397156
1207.0000,0.000125854
1208.0000,0.00406541
1209.0000,0.00653355
1210.0000,0.00680108
1211.0000,0.00471438
1212.0000,0.00129
1213.0000,-0.00192808
1214.0000,-0.00328219
1215.0000,-0.00236534
1216.0000,0.000248825
1217.0000,0.00289669
1218.0000,0.00445996
1219.0000,0.00451184
1220.0000,0.00377466
1221.0000,0.00304291
1222.0000,0.00310102
1223.0000,0.00366674
1224.0000,0.00403653
1225.0000,0.00309407
1226.0000,0.000326837
1227.0000,-0.00438746
1228.0000,-0.0101576
1229.0000,-0.0155409
1230.0000,-0.0184681
1231.0000,-0.0175821
1232.0000,-0.012624
1233.0000,-0.00518736
1234.0000,0.00243717
1235.0000,0.00798787
1236.0000,0.0106594
1237.0000,0.0109473
1238.0000,0.0104612
1239.0000,0.0104654
1240.0000,0.0114309
1241.0000,0.0124128
1242.0000,0.0122172
1243.0000,0.00969276
1244.0000,0.00486556
1245.0000,-0.0016699
1246.0000,-0.00825495
1247.0000,-0.0132591
1248.0000,-0.0152597
1249.0000,-0.0141522
1250.0000,-0.0108768
1251.0000,-0.00720321
1252.0000,-0.00447743
1253.0000,-0.00323957
1254.0000,-0.00237445
1255.0000,-0.00048582
1256.0000,0.00369384
1257.0000,0.00989384
1258.0000,0.0165731
1259.0000,0.0212986
1260.0000,0.0223184
1261.0000,0.0189209
1262.0000,0.0119619
1263.0000,0.00311289
1264.0000,-0.00547187
1265.0000,-0.0122366
1266.0000,-0.016285
1267.0000,-0.0179156
1268.0000,-0.0178065
1269.0000,-0.0167999
1270.0000,-0.0149482
1271.0000,-0.0119281
1272.0000,-0.00691508
1273.0000,1.87169E-005
1274.0000,0.00807477
1275.0000,0.0152626
1276.0000,0.0194957
1277.0000,0.0191602
1278.0000,0.0142887
1279.0000,0.00611216
1280.0000,-0.00308101
1281.0000,-0.0112229
1282.0000,-0.0166392
1283.0000,-0.0188143
1284.0000,-0.0178867
1285.0000,-0.0148288
1286.0000,-0.0103987
1287.0000,-0.00523709
1288.0000,0.000642089
1289.0000,0.00696979
1290.0000,0.0134026
1291.0000,0.018842
1292.0000,0.0220543
1293.0000,0.0217619
1294.0000,0.0176927
1295.0000,0.0103711
1296.0000,0.00143669
1297.0000,-0.00732637
1298.0000,-0.0142592
1299.0000,-0.0185194
1300.0000,-0.0197833
1301.0000,-0.0185331
1302.0000,-0.0152341
1303.0000,-0.0106625
1304.0000,-0.00512535
1305.0000,0.000992076
1306.0000,0.00760159
1307.0000,0.0140718
1308.0000,0.0196559
1309.0000,0.023133
1310.0000,0.0238668
1311.0000,0.0215317
1312.0000,0.0167072
1313.0000,0.0100939
1314.0000,0.00271901
1315.0000,-0.00473853
1316.0000,-0.0115779
1317.0000,-0.0174493
1318.0000,-0.0218089
1319.0000,-0.0242697
1320.0000,-0.0242715
1321.0000,-0.0217719
1322.0000,-0.0167411
1323.0000,-0.00960761
1324.0000,-0.000936887
1325.0000,0.00811401
1326.0000,0.0162356
1327.0000,0.0220152
1328.0000,0.0248218
1329.0000,0.0243028
1330.0000,0.0208436
1331.0000,0.0148505
1332.0000,0.00715765
1333.0000,-0.00144619
1334.0000,-0.00981814
1335.0000,-0.0170186
1336.0000,-0.0218441
1337.0000,-0.02366
1338.0000,-0.0222934
1339.0000,-0.0183594
1340.0000,-0.0125004
1341.0000,-0.00554539
1342.0000,0.00190341
1343.0000,0.00885707
1344.0000,0.0145845
1345.0000,0.0181845
1346.0000,0.0194182
1347.0000,0.0180887
1348.0000,0.0146337
1349.0000,0.0096462
1350.0000,0.00410232
1351.0000,-0.00129962
1352.0000,-0.00577712
1353.0000,-0.00885862
1354.0000,-0.0101728
1355.0000,-0.0100183
1356.0000,-0.00887917
1357.0000,-0.00749227
1358.0000,-0.00594786
1359.0000,-0.00431682
1360.0000,-0.00227672
1361.0000,-9.58044E-005
1362.0000,0.00203594
1363.0000,0.00363905
1364.0000,0.00456217
1365.0000,0.00472372
1366.0000,0.004568
1367.0000,0.00441014
1368.0000,0.00456011
1369.0000,0.00469758
1370.0000,0.00446023
1371.0000,0.00321219
1372.0000,0.000906622
1373.0000,-0.00240671
1374.0000,-0.00611838
1375.0000,-0.00954093
1376.0000,-0.0116223
1377.0000,-0.0118404
1378.0000,-0.0100605
1379.0000,-0.00697321
1380.0000,-0.00339
1381.0000,-0.000229933
1382.0000,0.0022871
1383.0000,0.00418164
1384.0000,0.00598304
1385.0000,0.00791146
1386.0000,0.00991324
1387.0000,0.0111889
1388.0000,0.0110432
1389.0000,0.00893707
1390.0000,0.00529077
1391.0000,0.000916165
1392.0000,-0.00298842
1393.0000,-0.00568627
1394.0000,-0.00668912
1395.0000,-0.00636292
1396.0000,-0.0052286
1397.0000,-0.00417667
1398.0000,-0.00355692
1399.0000,-0.00340085
1400.0000,-0.00317097
1401.0000,-0.00237747
1402.0000,-0.000452591
1403.0000,0.00253247
1404.0000,0.00614852
1405.0000,0.0092345
1406.0000,0.0110378
1407.0000,0.0110852
1408.0000,0.00983534
1409.0000,0.00787509
1410.0000,0.0058668
1411.0000,0.00371911
1412.0000,0.00129472
1413.0000,-0.00191694
1414.0000,-0.00601041
1415.0000,-0.0107642
1416.0000,-0.0151672
1417.0000,-0.0181614
1418.0000,-0.0187291
1419.0000,-0.0165529
1420.0000,-0.0116823
1421.0000,-0.00492847
1422.0000,0.00265303
1423.0000,0.00941304
1424.0000,0.01423
1425.0000,0.0163679
1426.0000,0.0161033
1427.0000,0.0140025
1428.0000,0.0108859
1429.0000,0.00705874
1430.0000,0.00286159
1431.0000,-0.00178003
1432.0000,-0.00661406
1433.0000,-0.0113414
1434.0000,-0.0151109
1435.0000,-0.0172516
1436.0000,-0.0171884
1437.0000,-0.014883
1438.0000,-0.0104245
1439.0000,-0.00444894
1440.0000,0.00221693
1441.0000,0.00814072
1442.0000,0.0122985
1443.0000,0.0140912
1444.0000,0.0140245
1445.0000,0.0128206
1446.0000,0.011573
1447.0000,0.0106149
1448.0000,0.00980637
1449.0000,0.00816873
1450.0000,0.00490372
1451.0000,-0.000303508
1452.0000,-0.00657928
1453.0000,-0.0126695
1454.0000,-0.0170591
1455.0000,-0.0188321
1456.0000,-0.0174934
1457.0000,-0.0135613
1458.0000,-0.00812263
1459.0000,-0.00277926
1460.0000,0.00147596
1461.0000,0.00424583
1462.0000,0.00633038
1463.0000,0.00872457
1464.0000,0.0121883
1465.0000,0.0161897
1466.0000,0.019135
1467.0000,0.0187124
1468.0000,0.0137325
1469.0000,0.00467759
1470.0000,-0.00594776
1471.0000,-0.0151442
1472.0000,-0.0202992
1473.0000,-0.0205959
1474.0000,-0.0167704
1475.0000,-0.0110135
1476.0000,-0.00549878
1477.0000,-0.00196151
1478.0000,-0.000503314
1479.0000,-0.000218176
1480.0000,0.000736629
1481.0000,0.00373048
1482.0000,0.00903124
1483.0000,0.0149474
1484.0000,0.0188095
1485.0000,0.0180457
1486.0000,0.0123053
1487.0000,0.00346724
1488.0000,-0.00462777
1489.0000,-0.0087757
1490.0000,-0.00762077
1491.0000,-0.00280043
1492.0000,0.00258026
1493.0000,0.0052068
1494.0000,0.00365679
1495.0000,-0.00158724
1496.0000,-0.00809215
1497.0000,-0.0129923
1498.0000,-0.013838
1499.0000,-0.0100433
1500.0000,-0.00290233
1501.0000,0.00447083
1502.0000,0.00887376
1503.0000,0.00831496
1504.0000,0.00370359
1505.0000,-0.00193086
1506.0000,-0.00467465
1507.0000,-0.00257613
1508.0000,0.00340733
1509.0000,0.00970141
1510.0000,0.0127254
1511.0000,0.010353
1512.0000,0.00353268
1513.0000,-0.0049039
1514.0000,-0.0113809
1515.0000,-0.0137021
1516.0000,-0.0113844
1517.0000,-0.00613653
1518.0000,-0.000585247
1519.0000,0.00223281
1520.0000,0.000623212
1521.0000,-0.00513532
1522.0000,-0.0121127
1523.0000,-0.0164292
1524.0000,-0.0150153
1525.0000,-0.00784518
1526.0000,0.00235604
1527.0000,0.0113067
1528.0000,0.0159106
1529.0000,0.0155611
1530.0000,0.0124697
1531.0000,0.00956163
1532.0000,0.00899305
1533.0000,0.010701
1534.0000,0.013184
1535.0000,0.0140152
1536.0000,0.0114213
1537.0000,0.00447727
1538.0000,-0.0058575
1539.0000,-0.0173144
1540.0000,-0.0262203
1541.0000,-0.0294737
1542.0000,-0.0256957
1543.0000,-0.0166433
1544.0000,-0.00583705
1545.0000,0.00283028
1546.0000,0.00754731
1547.0000,0.00886814
1548.0000,0.0092594
1549.0000,0.0108381
1550.0000,0.0143769
1551.0000,0.0187045
1552.0000,0.0220023
1553.0000,0.0224085
1554.0000,0.019288
1555.0000,0.0126862
1556.0000,0.00377164
1557.0000,-0.00572736
1558.0000,-0.0134857
1559.0000,-0.0179448
1560.0000,-0.018796
1561.0000,-0.0176521
1562.0000,-0.0166413
1563.0000,-0.0173549
1564.0000,-0.0194542
1565.0000,-0.0211207
1566.0000,-0.0197791
1567.0000,-0.0141377
1568.0000,-0.00447778
1569.0000,0.00704186
1570.0000,0.0180808
1571.0000,0.0265011
1572.0000,0.0312982
1573.0000,0.0319276
1574.0000,0.028869
1575.0000,0.0231416
1576.0000,0.0163525
1577.0000,0.00954311
1578.0000,0.00307704
1579.0000,-0.00377524
1580.0000,-0.0116874
1581.0000,-0.0207909
1582.0000,-0.0296472
1583.0000,-0.036052
1584.0000,-0.0376163
1585.0000,-0.0336042
1586.0000,-0.0246837
1587.0000,-0.0130194
1588.0000,-0.000877741
1589.0000,0.00981835
1590.0000,0.0181287
1591.0000,0.0236722
1592.0000,0.0270658
1593.0000,0.0290833
1594.0000,0.0304659
1595.0000,0.0309838
1596.0000,0.0298305
1597.0000,0.0254392
1598.0000,0.0169486
1599.0000,0.00446918
1600.0000,-0.0101074
1601.0000,-0.0241591
1602.0000,-0.0348682
1603.0000,-0.0407953
1604.0000,-0.041659
1605.0000,-0.0385525
1606.0000,-0.0326432
1607.0000,-0.0250103
1608.0000,-0.0160513
1609.0000,-0.00580721
1610.0000,0.00597628
1611.0000,0.0187115
1612.0000,0.0312819
1613.0000,0.0413836
1614.0000,0.0467937
1615.0000,0.0456518
1616.0000,0.037746
1617.0000,0.0242347
1618.0000,0.00789056
1619.0000,-0.00819241
1620.0000,-0.0212564
1621.0000,-0.0299785
1622.0000,-0.0341591
1623.0000,-0.0347971
1624.0000,-0.0328034
1625.0000,-0.0288585
1626.0000,-0.0227577
1627.0000,-0.0141876
1628.0000,-0.00299015
1629.0000,0.00969608
1630.0000,0.021885
1631.0000,0.0309873
1632.0000,0.0351972
1633.0000,0.0338566
1634.0000,0.027965
1635.0000,0.0192194
1636.0000,0.00986589
1637.0000,0.00147403
1638.0000,-0.00502565
1639.0000,-0.00977213
1640.0000,-0.0132848
1641.0000,-0.0163723
1642.0000,-0.0190827
1643.0000,-0.0208655
1644.0000,-0.0202362
1645.0000,-0.0161746
1646.0000,-0.00842302
1647.0000,0.00139756
1648.0000,0.0108142
1649.0000,0.0172389
1650.0000,0.0195377
1651.0000,0.0179433
1652.0000,0.0139642
1653.0000,0.00901078
1654.0000,0.00410181
1655.0000,-0.000696029
1656.0000,-0.00540982
1657.0000,-0.0103166
1658.0000,-0.0152581
1659.0000,-0.0197637
1660.0000,-0.022658
1661.0000,-0.0225969
1662.0000,-0.0182093
1663.0000,-0.00941078
1664.0000,0.00249187
1665.0000,0.0144386
1666.0000,0.0233194
1667.0000,0.0268442
1668.0000,0.0250795
1669.0000,0.0196471
1670.0000,0.0128764
1671.0000,0.00615706
1672.0000,1.29703E-005
1673.0000,-0.00592859
1674.0000,-0.0117206
1675.0000,-0.0172005
1676.0000,-0.0214538
1677.0000,-0.0235376
1678.0000,-0.0224046
1679.0000,-0.0175964
1680.0000,-0.00914
1681.0000,0.00167266
1682.0000,0.0126278
1683.0000,0.0208094
1684.0000,0.0242282
1685.0000,0.0226192
1686.0000,0.0179518
1687.0000,0.0127391
1688.0000,0.0089224
1689.0000,0.00657863
1690.0000,0.00462861
1691.0000,0.00160692
1692.0000,-0.0029263
1693.0000,-0.00842829
1694.0000,-0.0133725
1695.0000,-0.016539
1696.0000,-0.0170289
1697.0000,-0.0149308
1698.0000,-0.0106255
1699.0000,-0.00545542
1700.0000,-0.000893342
1701.0000,0.00155488
1702.0000,0.00171941
1703.0000,0.000618079
1704.0000,0.000309463
1705.0000,0.00213851
1706.0000,0.00598448
1707.0000,0.00981928
1708.0000,0.0114717
1709.0000,0.0095826
1710.0000,0.00489708
1711.0000,-0.000553507
1712.0000,-0.00438197
1713.0000,-0.00539392
1714.0000,-0.00353978
1715.0000,-0.000134585
1716.0000,0.00337837
1717.0000,0.00537126
1718.0000,0.00501
1719.0000,0.00206041
1720.0000,-0.0024271
1721.0000,-0.00675733
1722.0000,-0.00912053
1723.0000,-0.00915098
1724.0000,-0.00769966
1725.0000,-0.00668747
1726.0000,-0.00715518
1727.0000,-0.00876873
1728.0000,-0.00936851
1729.0000,-0.00668226
1730.0000,0.000448389
1731.0000,0.01088
1732.0000,0.0220091
1733.0000,0.0305595
1734.0000,0.0343336
1735.0000,0.032285
1736.0000,0.0250305
1737.0000,0.0140623
1738.0000,0.00174253
1739.0000,-0.00977787
1740.0000,-0.0190872
1741.0000,-0.0261161
1742.0000,-0.0314193
1743.0000,-0.0356796
1744.0000,-0.038344
1745.0000,-0.037933
1746.0000,-0.0323045
1747.0000,-0.0207216
1748.0000,-0.00437254
1749.0000,0.0132881
1750.0000,0.0285526
1751.0000,0.0385233
1752.0000,0.0424494
1753.0000,0.0410565
1754.0000,0.036093
1755.0000,0.0290921
1756.0000,0.0211582
1757.0000,0.0123699
1758.0000,0.00235829
1759.0000,-0.00948489
1760.0000,-0.0228056
1761.0000,-0.0362629
1762.0000,-0.04721
1763.0000,-0.0528148
1764.0000,-0.0509491
1765.0000,-0.0417267
1766.0000,-0.0272477
1767.0000,-0.0108289
1768.0000,0.00497158
1769.0000,0.0187946
1770.0000,0.0308155
1771.0000,0.0412871
1772.0000,0.0501038
1773.0000,0.0559791
1774.0000,0.0571862
1775.0000,0.0518947
1776.0000,0.039592
1777.0000,0.021055
1778.0000,-0.00103232
1779.0000,-0.02327
1780.0000,-0.0418382
1781.0000,-0.0540753
1782.0000,-0.0588448
1783.0000,-0.0570199
1784.0000,-0.0502755
1785.0000,-0.0403231
1786.0000,-0.0276577
1787.0000,-0.0124459
1788.0000,0.00508656
1789.0000,0.0234756
1790.0000,0.0403633
1791.0000,0.0526708
1792.0000,0.0582166
1793.0000,0.0560237
1794.0000,0.0470979
1795.0000,0.033466
1796.0000,0.0178573
1797.0000,0.00237763
1798.0000,-0.0114336
1799.0000,-0.0233284
1800.0000,-0.0334423
1801.0000,-0.0421718
1802.0000,-0.0488584
1803.0000,-0.0521551
1804.0000,-0.050165
1805.0000,-0.0420678
1806.0000,-0.0285148
1807.0000,-0.0118077
1808.0000,0.00531682
1809.0000,0.0202857
1810.0000,0.0320095
1811.0000,0.0402773
1812.0000,0.0455187
1813.0000,0.0477335
1814.0000,0.0465919
1815.0000,0.041287
1816.0000,0.0315234
1817.0000,0.0174226
1818.0000,0.000264142
1819.0000,-0.01771
1820.0000,-0.0332873
1821.0000,-0.0437822
1822.0000,-0.0475283
1823.0000,-0.0450027
1824.0000,-0.0379145
1825.0000,-0.0285428
1826.0000,-0.0182511
1827.0000,-0.00745273
1828.0000,0.00424278
1829.0000,0.016605
1830.0000,0.0284312
1831.0000,0.0373326
1832.0000,0.0413216
1833.0000,0.0393405
1834.0000,0.0321117
1835.0000,0.0213402
1836.0000,0.00967599
1837.0000,-0.000653865
1838.0000,-0.00803656
1839.0000,-0.0124272
1840.0000,-0.014825
1841.0000,-0.0170311
1842.0000,-0.0200912
1843.0000,-0.0238593
1844.0000,-0.0264077
1845.0000,-0.0256207
1846.0000,-0.020259
1847.0000,-0.0114212
1848.0000,-0.00166861
1849.0000,0.00601478
1850.0000,0.0102674
1851.0000,0.0114346
1852.0000,0.0113646
1853.0000,0.0117413
1854.0000,0.0134284
1855.0000,0.0158724
1856.0000,0.0177433
1857.0000,0.0172496
1858.0000,0.0134185
1859.0000,0.00626216
1860.0000,-0.00252458
1861.0000,-0.0103713
1862.0000,-0.0144881
1863.0000,-0.0138268
1864.0000,-0.00932273
1865.0000,-0.00409348
1866.0000,-0.00108239
1867.0000,-0.00176785
1868.0000,-0.0049517
1869.0000,-0.00814271
1870.0000,-0.0088514
1871.0000,-0.00653514
1872.0000,-0.00222618
1873.0000,0.00188426
1874.0000,0.00433085
1875.0000,0.00453602
1876.0000,0.00352821
1877.0000,0.00280361
1878.0000,0.00411378
1879.0000,0.00822224
1880.0000,0.0146673
1881.0000,0.0211873
1882.0000,0.0247727
1883.0000,0.022676
1884.0000,0.0145003
1885.0000,0.00220026
1886.0000,-0.0103245
1887.0000,-0.0198
1888.0000,-0.0247247
1889.0000,-0.0261702
1890.0000,-0.0260583
1891.0000,-0.0259561
1892.0000,-0.0256613
1893.0000,-0.0239963
1894.0000,-0.0192907
1895.0000,-0.0109369
1896.0000,0.000571178
1897.0000,0.0133554
1898.0000,0.0251025
1899.0000,0.0332701
1900.0000,0.0362785
1901.0000,0.0338897
1902.0000,0.0277891
1903.0000,0.0203443
1904.0000,0.0137664
1905.0000,0.00830008
1906.0000,0.00270557
1907.0000,-0.00487782
1908.0000,-0.0149664
1909.0000,-0.0263025
1910.0000,-0.0358841
1911.0000,-0.0410274
1912.0000,-0.0402863
1913.0000,-0.0342294
1914.0000,-0.0244436
1915.0000,-0.0128583
1916.0000,-0.000705934
1917.0000,0.0110565
1918.0000,0.0221941
1919.0000,0.0324912
1920.0000,0.0417917
1921.0000,0.0491007
1922.0000,0.0527947
1923.0000,0.0505722
1924.0000,0.0410333
1925.0000,0.0244029
1926.0000,0.00351823
1927.0000,-0.0176511
1928.0000,-0.0350717
1929.0000,-0.0467736
1930.0000,-0.0526561
1931.0000,-0.0539133
1932.0000,-0.0514029
1933.0000,-0.0453164
1934.0000,-0.0351975
1935.0000,-0.0211292
1936.0000,-0.0036764
1937.0000,0.0152346
1938.0000,0.0332269
1939.0000,0.0474116
1940.0000,0.0555082
1941.0000,0.0561313
1942.0000,0.0497986
1943.0000,0.0382832
1944.0000,0.0244332
1945.0000,0.0103812
1946.0000,-0.00284864
1947.0000,-0.0158651
1948.0000,-0.0291586
1949.0000,-0.04221
1950.0000,-0.0527406
1951.0000,-0.0580465
1952.0000,-0.0559784
1953.0000,-0.0464288
1954.0000,-0.0308879
1955.0000,-0.0122264
1956.0000,0.00672623
1957.0000,0.0235608
1958.0000,0.0371391
1959.0000,0.0469143
1960.0000,0.0530907
1961.0000,0.0556597
1962.0000,0.0543936
1963.0000,0.0481437
1964.0000,0.0357941
1965.0000,0.0170127
1966.0000,-0.00610445
1967.0000,-0.0295903
1968.0000,-0.0485672
1969.0000,-0.0595855
1970.0000,-0.0614572
1971.0000,-0.055516
1972.0000,-0.0441469
1973.0000,-0.0299023
1974.0000,-0.0143577
1975.0000,0.00160725
1976.0000,0.0176202
1977.0000,0.0327331
1978.0000,0.0456437
1979.0000,0.0543789
1980.0000,0.0570672
1981.0000,0.0521026
1982.0000,0.0394065
1983.0000,0.0207375
1984.0000,1.75409E-005
1985.0000,-0.0186561
1986.0000,-0.0322227
1987.0000,-0.0401317
1988.0000,-0.0433421
1989.0000,-0.0435309
1990.0000,-0.0415328
1991.0000,-0.0372533
1992.0000,-0.0296833
1993.0000,-0.0183923
1994.0000,-0.00381913
1995.0000,0.0120992
1996.0000,0.0270406
1997.0000,0.0384544
1998.0000,0.04461
1999.0000,0.0445871
2000.0000,0.0390011
2001.0000,0.0295718
2002.0000,0.0187294
2003.0000,0.00790104
2004.0000,-0.00245552
2005.0000,-0.0129691
2006.0000,-0.0236303
2007.0000,-0.0335667
2008.0000,-0.0405595
2009.0000,-0.0424685
2010.0000,-0.0378597
2011.0000,-0.0273533
2012.0000,-0.0128977
2013.0000,0.00264558
2014.0000,0.0169405
2015.0000,0.0280496
2016.0000,0.0349932
2017.0000,0.0373369
2018.0000,0.0356847
2019.0000,0.0308188
2020.0000,0.0237536
2021.0000,0.014728
2022.0000,0.00402644
2023.0000,-0.0078625
2024.0000,-0.0194427
2025.0000,-0.0286698
2026.0000,-0.0335199
2027.0000,-0.0332398
2028.0000,-0.028331
2029.0000,-0.0205538
2030.0000,-0.0115723
2031.0000,-0.00277735
2032.0000,0.00525586
2033.0000,0.0118879
2034.0000,0.0167419
2035.0000,0.0192844
2036.0000,0.019668
2037.0000,0.0181204
2038.0000,0.015131
2039.0000,0.0108063
2040.0000,0.00550679
2041.0000,-0.000343261
2042.0000,-0.00577268
2043.0000,-0.0101352
2044.0000,-0.0130141
2045.0000,-0.0147517
2046.0000,-0.0154693
2047.0000,-0.0151785
2048.0000,-0.0132464
2049.0000,-0.00927307
2050.0000,-0.00334887
2051.0000,0.0032537
2052.0000,0.00910901
2053.0000,0.0129757
2054.0000,0.0149188
2055.0000,0.0152705
2056.0000,0.0146541
2057.0000,0.0131163
2058.0000,0.0105998
2059.0000,0.00686086
2060.0000,0.00211046
2061.0000,-0.00349644
2062.0000,-0.00925523
2063.0000,-0.0143788
2064.0000,-0.0174503
2065.0000,-0.017273
2066.0000,-0.0131404
2067.0000,-0.005991
2068.0000,0.00209992
2069.0000,0.00843872
2070.0000,0.0115094
2071.0000,0.0113413
2072.0000,0.00953992
2073.0000,0.00757765
2074.0000,0.00631131
2075.0000,0.00524185
2076.0000,0.00360556
2077.0000,0.000569195
2078.0000,-0.00375976
2079.0000,-0.00878831
2080.0000,-0.0131865
2081.0000,-0.0156674
2082.0000,-0.015
2083.0000,-0.011034
2084.0000,-0.00469066
2085.0000,0.00166559
2086.0000,0.00571305
2087.0000,0.00622439
2088.0000,0.0040983
2089.0000,0.00152748
2090.0000,0.000838614
2091.0000,0.00264608
2092.0000,0.00597836
2093.0000,0.00863913
2094.0000,0.00900718
2095.0000,0.00644776
2096.0000,0.00192651
2097.0000,-0.00309501
2098.0000,-0.0069175
2099.0000,-0.00860339
2100.0000,-0.00776831
2101.0000,-0.00526812
2102.0000,-0.00253306
2103.0000,-0.00120971
2104.0000,-0.00170363
2105.0000,-0.00311537
2106.0000,-0.00326685
2107.0000,-0.000499654
2108.0000,0.00540056
2109.0000,0.012399
2110.0000,0.0177015
2111.0000,0.0188705
2112.0000,0.015517
2113.0000,0.00892334
2114.0000,0.00157551
2115.0000,-0.00456585
2116.0000,-0.0082727
2117.0000,-0.00962146
2118.0000,-0.00925658
2119.0000,-0.00855862
2120.0000,-0.00839385
2121.0000,-0.00916597
2122.0000,-0.0100812
2123.0000,-0.00969964
2124.0000,-0.0065996
2125.0000,-0.00093607
2126.0000,0.00578944
2127.0000,0.011023
2128.0000,0.0129225
2129.0000,0.0109972
2130.0000,0.00677037
2131.0000,0.00233619
2132.0000,-0.000447531
2133.0000,-0.0012861
2134.0000,-0.000732911
2135.0000,-0.000170238
2136.0000,-0.000568528
2137.0000,-0.00258016
2138.0000,-0.00585411
2139.0000,-0.00959403
2140.0000,-0.0122149
2141.0000,-0.0125889
2142.0000,-0.010169
2143.0000,-0.0058387
2144.0000,-0.00104491
2145.0000,0.0026617
2146.0000,0.00477968
2147.0000,0.00570729
2148.0000,0.00671373
2149.0000,0.00839413
2150.0000,0.0107023
2151.0000,0.012481
2152.0000,0.0126417
2153.0000,0.0104352
2154.0000,0.00611811
2155.0000,0.00039714
2156.0000,-0.00528847
2157.0000,-0.009712
2158.0000,-0.0117212
2159.0000,-0.0111609
2160.0000,-0.00841854
2161.0000,-0.0047751
2162.0000,-0.00124681
2163.0000,0.00128152
2164.0000,0.00283298
2165.0000,0.00373324
2166.0000,0.00461516
2167.0000,0.00545681
2168.0000,0.00592285
2169.0000,0.00535367
2170.0000,0.00365559
2171.0000,0.000877367
2172.0000,-0.00215982
2173.0000,-0.00474055
2174.0000,-0.00600865
2175.0000,-0.00565928
2176.0000,-0.00375785
2177.0000,-0.00108006
2178.0000,0.00162136
2179.0000,0.0034151
2180.0000,0.00395464
2181.0000,0.00315738
2182.0000,0.00160751
2183.0000,-0.000155337
2184.0000,-0.00154908
2185.0000,-0.00253237
2186.0000,-0.00309952
2187.0000,-0.00365299
2188.0000,-0.00421006
2189.0000,-0.00494279
2190.0000,-0.00546033
2191.0000,-0.0054044
2192.0000,-0.00426767
2193.0000,-0.00214405
2194.0000,0.000774984
2195.0000,0.00374238
2196.0000,0.00630456
2197.0000,0.00801106
2198.0000,0.00894633
2199.0000,0.00922658
2200.0000,0.00920389
2201.0000,0.00881742
2202.0000,0.00805931
2203.0000,0.00652832
2204.0000,0.00412135
2205.0000,0.000512132
2206.0000,-0.00407495
2207.0000,-0.00923366
2208.0000,-0.0138296
2209.0000,-0.0168489
2210.0000,-0.0173453
2211.0000,-0.0153145
2212.0000,-0.0111443
2213.0000,-0.00581896
2214.0000,-8.52236E-005
2215.0000,0.00537758
2216.0000,0.0103585
2217.0000,0.0145107
2218.0000,0.0175068
2219.0000,0.018735
2220.0000,0.0179407
2221.0000,0.0148606
2222.0000,0.00976659
2223.0000,0.00293408
2224.0000,-0.00475729
2225.0000,-0.0123094
2226.0000,-0.0182551
2227.0000,-0.0216767
2228.0000,-0.0220447
2229.0000,-0.0197627
2230.0000,-0.0156236
2231.0000,-0.010688
2232.0000,-0.00544165
2233.0000,-0.00025605
2234.0000,0.0049304
2235.0000,0.0097168
2236.0000,0.013736
2237.0000,0.0164095
2238.0000,0.0175211
2239.0000,0.0169331
2240.0000,0.0148551
2241.0000,0.0113262
2242.0000,0.00687127
2243.0000,0.00196225
2244.0000,-0.00259198
2245.0000,-0.00637705
2246.0000,-0.00903875
2247.0000,-0.0107732
2248.0000,-0.0116902
2249.0000,-0.0120117
2250.0000,-0.0114015
2251.0000,-0.00965948
2252.0000,-0.00648728
2253.0000,-0.00228651
2254.0000,0.00245177
2255.0000,0.00693292
2256.0000,0.0107231
2257.0000,0.0132049
2258.0000,0.0141246
2259.0000,0.0131632
2260.0000,0.0105262
2261.0000,0.00660207
2262.0000,0.00222663
2263.0000,-0.00189636
2264.0000,-0.00514886
2265.0000,-0.00747698
2266.0000,-0.00874441
2267.0000,-0.00923357
2268.0000,-0.00891336
2269.0000,-0.00783371
2270.0000,-0.00598667
2271.0000,-0.00378951
2272.0000,-0.0015091
2273.0000,0.000301821
2274.0000,0.00146612
2275.0000,0.00162988
2276.0000,0.000853057
2277.0000,-0.000729334
2278.0000,-0.00243779
2279.0000,-0.00368617
2280.0000,-0.00375615
2281.0000,-0.00248679
2282.0000,2.7013E-005
2283.0000,0.00304887
2284.0000,0.00581993
2285.0000,0.00751872
2286.0000,0.00806022
2287.0000,0.00756336
2288.0000,0.00647939
2289.0000,0.00494933
2290.0000,0.0032161
2291.0000,0.00109469
2292.0000,-0.00145075
2293.0000,-0.00452428
2294.0000,-0.0075984
2295.0000,-0.0100215
2296.0000,-0.0108922
2297.0000,-0.0100037
2298.0000,-0.00731868
2299.0000,-0.00341707
2300.0000,0.00100708
2301.0000,0.00493129
2302.0000,0.00780724
2303.0000,0.00937887
2304.0000,0.0101484
2305.0000,0.0104449
2306.0000,0.0106847
2307.0000,0.010665
2308.0000,0.00999382
2309.0000,0.00791115
2310.0000,0.00409192
2311.0000,-0.00128206
2312.0000,-0.00694642
2313.0000,-0.0117543
2314.0000,-0.0147474
2315.0000,-0.0158971
2316.0000,-0.0153799
2317.0000,-0.013793
2318.0000,-0.0114557
2319.0000,-0.00866629
2320.0000,-0.00522091
2321.0000,-0.000991886
2322.0000,0.00415984
2323.0000,0.0095822
2324.0000,0.0145444
2325.0000,0.0178462
2326.0000,0.0185878
2327.0000,0.0160318
2328.0000,0.0105774
2329.0000,0.00350998
2330.0000,-0.00320518
2331.0000,-0.00834802
2332.0000,-0.0113297
2333.0000,-0.0126357
2334.0000,-0.0127481
2335.0000,-0.0121595
2336.0000,-0.010812
2337.0000,-0.00853869
2338.0000,-0.004903
2339.0000,-0.00019283
2340.0000,0.00499545
2341.0000,0.00961501
2342.0000,0.0128462
2343.0000,0.0139487
2344.0000,0.012779
2345.0000,0.00951393
2346.0000,0.00516252
2347.0000,0.00101911
2348.0000,-0.00171539
2349.0000,-0.00291736
2350.0000,-0.00295986
2351.0000,-0.00285863
2352.0000,-0.00303662
2353.0000,-0.00366404
2354.0000,-0.00413756
2355.0000,-0.00404731
2356.0000,-0.00300057
2357.0000,-0.00146956
2358.0000,5.59489E-005
2359.0000,0.001037
2360.0000,0.00149706
2361.0000,0.00134123
2362.0000,0.000831362
2363.0000,7.16989E-007
2364.0000,-0.00080559
2365.0000,-0.00148473
2366.0000,-0.00174009
2367.0000,-0.00184171
2368.0000,-0.00191824
2369.0000,-0.0022777
2370.0000,-0.00274643
2371.0000,-0.00307511
2372.0000,-0.00273941
2373.0000,-0.00167186
2374.0000,2.21589E-005
2375.0000,0.00170343
2376.0000,0.00316694
2377.0000,0.00416772
2378.0000,0.00495174
2379.0000,0.00533657
2380.0000,0.00515829
2381.0000,0.00395972
2382.0000,0.00174654
2383.0000,-0.001163
2384.0000,-0.00392949
2385.0000,-0.00588669
2386.0000,-0.00645006
2387.0000,-0.00567097
2388.0000,-0.00382551
2389.0000,-0.00148851
2390.0000,0.00101096
2391.0000,0.00317999
2392.0000,0.00491576
2393.0000,0.00604257
2394.0000,0.00678035
2395.0000,0.00706631
2396.0000,0.00699753
2397.0000,0.00612082
2398.0000,0.00426466
2399.0000,0.00123166
2400.0000,-0.00235246
2401.0000,-0.00563377
2402.0000,-0.00743774
2403.0000,-0.00726345
2404.0000,-0.00524576
2405.0000,-0.0025881
2406.0000,-0.0004108
2407.0000,0.00038502
2408.0000,-0.000130178
2409.0000,-0.0014168
2410.0000,-0.00250659
2411.0000,-0.00290227
2412.0000,-0.00233745
2413.0000,-0.0014072
2414.0000,-0.000635238
2415.0000,-0.000668185
2416.0000,-0.00143216
2417.0000,-0.00259474
2418.0000,-0.00327861
2419.0000,-0.00286829
2420.0000,-0.000934943
2421.0000,0.00192297
2422.0000,0.00468053
2423.0000,0.00594513
2424.0000,0.00523007
2425.0000,0.00278757
2426.0000,-6.50265E-005
2427.0000,-0.00204517
2428.0000,-0.00227288
2429.0000,-0.00111127
2430.0000,0.000515024
2431.0000,0.00130183
2432.0000,0.000691823
2433.0000,-0.00110531
2434.0000,-0.00306638
2435.0000,-0.00424239
2436.0000,-0.00383607
2437.0000,-0.00199927
2438.0000,0.000798643
2439.0000,0.00344283
2440.0000,0.0052512
2441.0000,0.00580059
2442.0000,0.00559599
2443.0000,0.00534959
2444.0000,0.00595394
2445.0000,0.00742552
2446.0000,0.00906586
2447.0000,0.00937418
2448.0000,0.00726551
2449.0000,0.00238838
2450.0000,-0.00402096
2451.0000,-0.0102124
2452.0000,-0.0142243
2453.0000,-0.0153884
2454.0000,-0.0139369
2455.0000,-0.0110372
2456.0000,-0.00772037
2457.0000,-0.00471757
2458.0000,-0.00198409
2459.0000,0.000708581
2460.0000,0.00391959
2461.0000,0.00760121
2462.0000,0.0112902
2463.0000,0.0138302
2464.0000,0.0141857
2465.0000,0.0115408
2466.0000,0.00630774
2467.0000,-0.000350054
2468.0000,-0.00635698
2469.0000,-0.0102294
2470.0000,-0.0113591
2471.0000,-0.0106274
2472.0000,-0.00924881
2473.0000,-0.00842313
2474.0000,-0.00812505
2475.0000,-0.00779033
2476.0000,-0.0063201
2477.0000,-0.00321954
2478.0000,0.0014144
2479.0000,0.00647823
2480.0000,0.0107828
2481.0000,0.0132397
2482.0000,0.013586
2483.0000,0.0119886
2484.0000,0.00952719
2485.0000,0.0071467
2486.0000,0.00568097
2487.0000,0.00490048
2488.0000,0.0039079
2489.0000,0.00149849
2490.0000,-0.00269754
2491.0000,-0.00813038
2492.0000,-0.0131206
2493.0000,-0.0161297
2494.0000,-0.0160292
2495.0000,-0.0131249
2496.0000,-0.00840357
2497.0000,-0.00341323
2498.0000,0.000860507
2499.0000,0.00395261
2500.0000,0.0062278
2501.0000,0.00809889
2502.0000,0.00998505
2503.0000,0.0117458
2504.0000,0.012991
2505.0000,0.0127828
2506.0000,0.0105501
2507.0000,0.00604455
2508.0000,0.000162085
2509.0000,-0.00578709
2510.0000,-0.0103463
2511.0000,-0.0129727
2512.0000,-0.0137505
2513.0000,-0.0135842
2514.0000,-0.0131166
2515.0000,-0.0128066
2516.0000,-0.0122115
2517.0000,-0.0107193
2518.0000,-0.0075905
2519.0000,-0.00280934
2520.0000,0.00330317
2521.0000,0.00975258
2522.0000,0.0157032
2523.0000,0.0200497
2524.0000,0.0222506
2525.0000,0.0220966
2526.0000,0.0201218
2527.0000,0.0167227
2528.0000,0.0122174
2529.0000,0.00634647
2530.0000,-0.000803353
2531.0000,-0.00889472
2532.0000,-0.0168163
2533.0000,-0.0234098
2534.0000,-0.0272525
2535.0000,-0.0275796
2536.0000,-0.0241926
2537.0000,-0.0177697
2538.0000,-0.00916023
2539.0000,0.000475542
2540.0000,0.0101418
2541.0000,0.0185783
2542.0000,0.0248189
2543.0000,0.0282368
2544.0000,0.0288002
2545.0000,0.0264193
2546.0000,0.0212859
2547.0000,0.013498
2548.0000,0.00403948
2549.0000,-0.0059864
2550.0000,-0.0150979
2551.0000,-0.0222767
2552.0000,-0.0267185
2553.0000,-0.0283449
2554.0000,-0.0272497
2555.0000,-0.0239263
2556.0000,-0.0184838
2557.0000,-0.0113671
2558.0000,-0.00327294
2559.0000,0.00446331
2560.0000,0.0108868
2561.0000,0.0153877
2562.0000,0.0180401
2563.0000,0.0188169
2564.0000,0.0179027
2565.0000,0.0153386
2566.0000,0.0115781
2567.0000,0.00695067
2568.0000,0.00202283
2569.0000,-0.00290551
2570.0000,-0.00726401
2571.0000,-0.0108297
2572.0000,-0.0130224
2573.0000,-0.0134314
2574.0000,-0.0115314
2575.0000,-0.00776565
2576.0000,-0.00314788
2577.0000,0.000822813
2578.0000,0.00347497
2579.0000,0.00482342
2580.0000,0.00551103
2581.0000,0.00586948
2582.0000,0.00608888
2583.0000,0.00569013
2584.0000,0.00449445
2585.0000,0.00237345
2586.0000,-0.000127258
2587.0000,-0.00232535
2588.0000,-0.00331201
2589.0000,-0.00267909
2590.0000,-0.000151588
2591.0000,0.0038587
2592.0000,0.0085523
2593.0000,0.0122956
2594.0000,0.0135959
2595.0000,0.0114289
2596.0000,0.00649077
2597.0000,0.000228327
2598.0000,-0.00549635
2599.0000,-0.00988466
2600.0000,-0.0129521
2601.0000,-0.0154533
2602.0000,-0.0177115
2603.0000,-0.0195355
2604.0000,-0.0197172
2605.0000,-0.017264
2606.0000,-0.0114883
2607.0000,-0.00299874
2608.0000,0.00698295
2609.0000,0.0164454
2610.0000,0.0236813
2611.0000,0.0270445
2612.0000,0.0260343
2613.0000,0.0212516
2614.0000,0.0146176
2615.0000,0.00802865
2616.0000,0.00271235
2617.0000,-0.00170645
2618.0000,-0.00618868
2619.0000,-0.0117523
2620.0000,-0.0181101
2621.0000,-0.0238991
2622.0000,-0.0269048
2623.0000,-0.0257158
2624.0000,-0.0202184
2625.0000,-0.011945
2626.0000,-0.00281205
2627.0000,0.00526577
2628.0000,0.0113285
2629.0000,0.0150764
2630.0000,0.0172035
2631.0000,0.0186485
2632.0000,0.0203779
2633.0000,0.0222138
2634.0000,0.02309
2635.0000,0.0211996
2636.0000,0.0153121
2637.0000,0.00546492
2638.0000,-0.0063557
2639.0000,-0.017313
2640.0000,-0.0245888
2641.0000,-0.0272564
2642.0000,-0.0260088
2643.0000,-0.0227666
2644.0000,-0.0190357
2645.0000,-0.0156229
2646.0000,-0.011968
2647.0000,-0.00739112
2648.0000,-0.00107826
2649.0000,0.00675851
2650.0000,0.0151891
2651.0000,0.0223213
2652.0000,0.0264002
2653.0000,0.0259877
2654.0000,0.0212078
2655.0000,0.0134724
2656.0000,0.00537928
2657.0000,-0.000926812
2658.0000,-0.00445106
2659.0000,-0.00607151
2660.0000,-0.00738956
2661.0000,-0.00992274
2662.0000,-0.0137142
2663.0000,-0.0175727
2664.0000,-0.0194594
2665.0000,-0.0181406
2666.0000,-0.0133122
2667.0000,-0.00619006
2668.0000,0.00152861
2669.0000,0.00806171
2670.0000,0.012441
2671.0000,0.0144415
2672.0000,0.0149305
2673.0000,0.0149998
2674.0000,0.0155789
2675.0000,0.016455
2676.0000,0.0166184
2677.0000,0.0143708
2678.0000,0.00889107
2679.0000,0.000486687
2680.0000,-0.00877999
2681.0000,-0.0164131
2682.0000,-0.0202681
2683.0000,-0.01989
2684.0000,-0.0162365
2685.0000,-0.011286
2686.0000,-0.00661176
2687.0000,-0.00318257
2688.0000,-0.000672752
2689.0000,0.00156227
2690.0000,0.0043602
2691.0000,0.00776572
2692.0000,0.0112964
2693.0000,0.0135692
2694.0000,0.0133681
2695.0000,0.00994478
2696.0000,0.00391877
2697.0000,-0.00311817
2698.0000,-0.00892585
2699.0000,-0.0119156
2700.0000,-0.0116008
2701.0000,-0.00917852
2702.0000,-0.00629744
2703.0000,-0.0046693
2704.0000,-0.00458811
2705.0000,-0.00541446
2706.0000,-0.00565875
2707.0000,-0.00426541
2708.0000,-0.000810532
2709.0000,0.00389397
2710.0000,0.00861594
2711.0000,0.0117239
2712.0000,0.0123946
2713.0000,0.0105289
2714.0000,0.00718381
2715.0000,0.00361849
2716.0000,0.000959382
2717.0000,-0.000583826
2718.0000,-0.00140399
2719.0000,-0.00268677
2720.0000,-0.00504633
2721.0000,-0.00851225
2722.0000,-0.0117847
2723.0000,-0.0133469
2724.0000,-0.0118175
2725.0000,-0.00715601
2726.0000,-0.000271036
2727.0000,0.00703636
2728.0000,0.0130249
2729.0000,0.0163286
2730.0000,0.0168168
2731.0000,0.0150346
2732.0000,0.012216
2733.0000,0.00914921
2734.0000,0.00622327
2735.0000,0.00304701
2736.0000,-0.000830713
2737.0000,-0.0058441
2738.0000,-0.0115135
2739.0000,-0.0168439
2740.0000,-0.0202032
2741.0000,-0.0204855
2742.0000,-0.0173927
2743.0000,-0.0118311
2744.0000,-0.00522493
2745.0000,0.000707539
2746.0000,0.00506687
2747.0000,0.00751652
2748.0000,0.00888606
2749.0000,0.0100197
2750.0000,0.0116703
2751.0000,0.0136104
2752.0000,0.0151239
2753.0000,0.0149351
2754.0000,0.0123453
2755.0000,0.00719583
2756.0000,0.000492093
2757.0000,-0.00637594
2758.0000,-0.0118121
2759.0000,-0.015104
2760.0000,-0.0161458
2761.0000,-0.0156109
2762.0000,-0.014131
2763.0000,-0.0122672
2764.0000,-0.00990624
2765.0000,-0.00677245
2766.0000,-0.00221183
2767.0000,0.00376231
2768.0000,0.0106596
2769.0000,0.0170384
2770.0000,0.0213641
2771.0000,0.0222937
2772.0000,0.01962
2773.0000,0.0140292
2774.0000,0.00722981
2775.0000,0.000757894
2776.0000,-0.00411126
2777.0000,-0.00733701
2778.0000,-0.00921719
2779.0000,-0.0105038
2780.0000,-0.0114474
2781.0000,-0.0120289
2782.0000,-0.0118261
2783.0000,-0.0105676
2784.0000,-0.00785765
2785.0000,-0.00404691
2786.0000,0.000237791
2787.0000,0.00373383
2788.0000,0.00556152
2789.0000,0.00526602
2790.0000,0.00345326
2791.0000,0.00114523
2792.0000,-0.000274357
2793.0000,-0.000164067
2794.0000,0.00141151
2795.0000,0.00330522
2796.0000,0.00447722
2797.0000,0.00421736
2798.0000,0.00277959
2799.0000,0.000646955
2800.0000,-0.00130203
2801.0000,-0.00257525
2802.0000,-0.00284807
2803.0000,-0.00231913
2804.0000,-0.00141377
2805.0000,-0.000962031
2806.0000,-0.00125023
2807.0000,-0.00237508
2808.0000,-0.00367181
2809.0000,-0.00439766
2810.0000,-0.00374514
2811.0000,-0.00181005
2812.0000,0.000711531
2813.0000,0.00248134
2814.0000,0.00296588
2815.0000,0.0022395
2816.0000,0.00135938
2817.0000,0.00118594
2818.0000,0.00238165
2819.0000,0.00476286
2820.0000,0.00782579
2821.0000,0.0105099
2822.0000,0.0119909
2823.0000,0.0114734
2824.0000,0.00889315
2825.0000,0.00455491
2826.0000,-0.000429569
2827.0000,-0.00502225
2828.0000,-0.00824295
2829.0000,-0.0100925
2830.0000,-0.0111039
2831.0000,-0.0121661
2832.0000,-0.0132692
2833.0000,-0.0139289
2834.0000,-0.0129759
2835.0000,-0.00988323
2836.0000,-0.00472835
2837.0000,0.00146179
2838.0000,0.00756324
2839.0000,0.0121977
2840.0000,0.0146893
2841.0000,0.0147553
2842.0000,0.0128345
2843.0000,0.00968446
2844.0000,0.0064233
2845.0000,0.00378292
2846.0000,0.00212908
2847.0000,0.000818498
2848.0000,-0.00104087
2849.0000,-0.00431273
2850.0000,-0.00871516
2851.0000,-0.0131607
2852.0000,-0.0161086
2853.0000,-0.0167469
2854.0000,-0.0148929
2855.0000,-0.0113152
2856.0000,-0.00682335
2857.0000,-0.0023234
2858.0000,0.00198222
2859.0000,0.00596143
2860.0000,0.00987601
2861.0000,0.0136962
2862.0000,0.0174169
2863.0000,0.0204933
2864.0000,0.0222201
2865.0000,0.0213863
2866.0000,0.0172954
2867.0000,0.00998763
2868.0000,0.000853903
2869.0000,-0.00836153
2870.0000,-0.0156702
2871.0000,-0.0201961
2872.0000,-0.0217889
2873.0000,-0.0212019
2874.0000,-0.0190463
2875.0000,-0.0158227
2876.0000,-0.0114399
2877.0000,-0.00600459
2878.0000,0.000409898
2879.0000,0.00712222
2880.0000,0.0133444
2881.0000,0.0179117
2882.0000,0.0200024
2883.0000,0.0188718
2884.0000,0.0148743
2885.0000,0.00880741
2886.0000,0.00217523
2887.0000,-0.00369647
2888.0000,-0.0078911
2889.0000,-0.0105837
2890.0000,-0.0122557
2891.0000,-0.0136342
2892.0000,-0.0146356
2893.0000,-0.0148292
2894.0000,-0.0134195
2895.0000,-0.0100837
2896.0000,-0.00487341
2897.0000,0.00124538
2898.0000,0.00722208
2899.0000,0.0118071
2900.0000,0.0144259
2901.0000,0.0147491
2902.0000,0.0133423
2903.0000,0.0107676
2904.0000,0.0078435
2905.0000,0.00474225
2906.0000,0.0015269
2907.0000,-0.0020616
2908.0000,-0.00588949
2909.0000,-0.00948966
2910.0000,-0.0117107
2911.0000,-0.0117194
2912.0000,-0.00898033
2913.0000,-0.00401031
2914.0000,0.00214461
2915.0000,0.0079558
2916.0000,0.0122923
2917.0000,0.0143201
2918.0000,0.0141727
2919.0000,0.0122444
2920.0000,0.00922595
2921.0000,0.00544897
2922.0000,0.00113817
2923.0000,-0.00376505
2924.0000,-0.00897277
2925.0000,-0.0139823
2926.0000,-0.0175489
2927.0000,-0.0185551
2928.0000,-0.0160935
2929.0000,-0.010549
2930.0000,-0.00304228
2931.0000,0.00448901
2932.0000,0.0104007
2933.0000,0.0135649
2934.0000,0.0139411
2935.0000,0.0120909
2936.0000,0.00919336
2937.0000,0.00595691
2938.0000,0.00282341
2939.0000,-0.000607239
2940.0000,-0.00452144
2941.0000,-0.00911435
2942.0000,-0.0137251
2943.0000,-0.0172629
2944.0000,-0.0181555
2945.0000,-0.0155889
2946.0000,-0.00974404
2947.0000,-0.00225481
2948.0000,0.00489512
2949.0000,0.00992433
2950.0000,0.0123381
2951.0000,0.0123954
2952.0000,0.0113847
2953.0000,0.0103128
2954.0000,0.0097608
2955.0000,0.00919938
2956.0000,0.00776859
2957.0000,0.00452622
2958.0000,-0.000666106
2959.0000,-0.00713854
2960.0000,-0.0131728
2961.0000,-0.0168978
2962.0000,-0.0166686
2963.0000,-0.0124866
2964.0000,-0.00555671
2965.0000,0.00171271
2966.0000,0.00749447
2967.0000,0.0107468
2968.0000,0.0119572
2969.0000,0.0121409
2970.0000,0.0124849
2971.0000,0.0130213
2972.0000,0.0129817
2973.0000,0.0107839
2974.0000,0.00549865
2975.0000,-0.00280445
2976.0000,-0.0125618
2977.0000,-0.0215648
2978.0000,-0.0272857
2979.0000,-0.0280367
2980.0000,-0.02331
2981.0000,-0.0145238
2982.0000,-0.00409662
2983.0000,0.00527602
2984.0000,0.0121485
2985.0000,0.0162507
2986.0000,0.0186557
2987.0000,0.0202935
2988.0000,0.0216252
2989.0000,0.0217724
2990.0000,0.0193134
2991.0000,0.0129345
2992.0000,0.00285709
2993.0000,-0.00929449
2994.0000,-0.0207398
2995.0000,-0.0290112
2996.0000,-0.0322145
2997.0000,-0.0300114
2998.0000,-0.0232423
2999.0000,-0.014132
3000.0000,-0.00490269
3001.0000,0.00275684
3002.0000,0.00873004
3003.0000,0.013625
3004.0000,0.018555
3005.0000,0.0238646
3006.0000,0.028946
3007.0000,0.0318746
3008.0000,0.0306883
3009.0000,0.0242874
3010.0000,0.0136177
3011.0000,0.000810988
3012.0000,-0.0114083
3013.0000,-0.0211124
3014.0000,-0.0270637
3015.0000,-0.0293621
3016.0000,-0.0287117
3017.0000,-0.0264206
3018.0000,-0.0231656
3019.0000,-0.0191415
3020.0000,-0.013718
3021.0000,-0.00635359
3022.0000,0.0033213
3023.0000,0.0144412
3024.0000,0.0252295
3025.0000,0.0329718
3026.0000,0.0355801
3027.0000,0.0323248
3028.0000,0.0243569
3029.0000,0.0136966
3030.0000,0.00271993
3031.0000,-0.00699159
3032.0000,-0.0144845
3033.0000,-0.0198473
3034.0000,-0.0233972
3035.0000,-0.0256452
3036.0000,-0.0265347
3037.0000,-0.0259279
3038.0000,-0.0231268
3039.0000,-0.0177143
3040.0000,-0.00945966
3041.0000,0.000730179
3042.0000,0.0112654
3043.0000,0.0198871
3044.0000,0.0249878
3045.0000,0.0260449
3046.0000,0.0239579
3047.0000,0.0200639
3048.0000,0.0158734
3049.0000,0.012113
3050.0000,0.00897516
3051.0000,0.00581248
3052.0000,0.00203163
3053.0000,-0.00296691
3054.0000,-0.00895341
3055.0000,-0.0151272
3056.0000,-0.0199931
3057.0000,-0.0222909
3058.0000,-0.0209656
3059.0000,-0.0162983
3060.0000,-0.00950415
3061.0000,-0.00262268
3062.0000,0.00285959
3063.0000,0.00626668
3064.0000,0.00823763
3065.0000,0.00967192
3066.0000,0.0115274
3067.0000,0.0138658
3068.0000,0.0161746
3069.0000,0.0170066
3070.0000,0.0151972
3071.0000,0.0101406
3072.0000,0.0026258
3073.0000,-0.0057583
3074.0000,-0.0126683
3075.0000,-0.0164242
3076.0000,-0.0163086
3077.0000,-0.0133933
3078.0000,-0.00957262
3079.0000,-0.00701304
3080.0000,-0.00658144
3081.0000,-0.00786063
3082.0000,-0.00918906
3083.0000,-0.0089003
3084.0000,-0.00577432
3085.0000,-0.000171683
3086.0000,0.00648067
3087.0000,0.0118709
3088.0000,0.0142813
3089.0000,0.0132269
3090.0000,0.0099668
3091.0000,0.00648296
3092.0000,0.00488021
3093.0000,0.00574769
3094.0000,0.00824863
3095.0000,0.0100457
3096.0000,0.00913335
3097.0000,0.00451163
3098.0000,-0.00272404
3099.0000,-0.0103944
3100.0000,-0.0158623
3101.0000,-0.0174806
3102.0000,-0.0149055
3103.0000,-0.00965383
3104.0000,-0.00393942
3105.0000,-0.00013384
3106.0000,0.00086497
3107.0000,-0.000260513
3108.0000,-0.00134791
3109.0000,-0.000330606
3110.0000,0.00381201
3111.0000,0.00996383
3112.0000,0.0157361
3113.0000,0.018326
3114.0000,0.016574
3115.0000,0.0111062
3116.0000,0.00427034
3117.0000,-0.0016375
3118.0000,-0.00504363
3119.0000,-0.00601327
3120.0000,-0.0056141
3121.0000,-0.00575807
3122.0000,-0.00771917
3123.0000,-0.0120061
3124.0000,-0.0174043
3125.0000,-0.0217759
3126.0000,-0.0225615
3127.0000,-0.0185667
3128.0000,-0.010272
3129.0000,-0.000317248
3130.0000,0.00837007
3131.0000,0.0136183
3132.0000,0.0154227
3133.0000,0.0152523
3134.0000,0.0150534
3135.0000,0.0156766
3136.0000,0.0168176
3137.0000,0.017044
3138.0000,0.0151312
3139.0000,0.0103787
3140.0000,0.00319705
3141.0000,-0.00537488
3142.0000,-0.013449
3143.0000,-0.0192981
3144.0000,-0.0214052
3145.0000,-0.0197011
3146.0000,-0.0152307
3147.0000,-0.0102674
3148.0000,-0.00645307
3149.0000,-0.00430947
3150.0000,-0.00263585
3151.0000,6.45802E-005
3152.0000,0.00477358
3153.0000,0.0108223
3154.0000,0.0167409
3155.0000,0.0208753
3156.0000,0.0225268
3157.0000,0.0215527
3158.0000,0.0185808
3159.0000,0.0138878
3160.0000,0.00814379
3161.0000,0.00189852
3162.0000,-0.00403966
3163.0000,-0.00928639
3164.0000,-0.0138459
3165.0000,-0.0182948
3166.0000,-0.0225954
3167.0000,-0.0261501
3168.0000,-0.027457
3169.0000,-0.0254706
3170.0000,-0.0200327
3171.0000,-0.0122799
3172.0000,-0.00356565
3173.0000,0.00486333
3174.0000,0.0125847
3175.0000,0.0191121
3176.0000,0.0241059
3177.0000,0.0267575
3178.0000,0.0266369
3179.0000,0.0238405
3180.0000,0.019359
3181.0000,0.0138883
3182.0000,0.00778317
3183.0000,0.000568644
3184.0000,-0.00769185
3185.0000,-0.016423
3186.0000,-0.0240579
3187.0000,-0.0292447
3188.0000,-0.0310844
3189.0000,-0.0297316
3190.0000,-0.0254612
3191.0000,-0.0188812
3192.0000,-0.0103631
3193.0000,-0.000732718
3194.0000,0.00909155
3195.0000,0.0178879
3196.0000,0.0250825
3197.0000,0.0304459
3198.0000,0.0343492
3199.0000,0.036367
3200.0000,0.0354968
3201.0000,0.0302586
3202.0000,0.0203301
3203.0000,0.00675483
3204.0000,-0.00799809
3205.0000,-0.0213827
3206.0000,-0.0314219
3207.0000,-0.0373951
3208.0000,-0.0392398
3209.0000,-0.0375934
3210.0000,-0.0328175
3211.0000,-0.0255397
3212.0000,-0.0162472
3213.0000,-0.00565114
3214.0000,0.00583128
3215.0000,0.0175261
3216.0000,0.0285767
3217.0000,0.0371555
3218.0000,0.0412428
3219.0000,0.0392083
3220.0000,0.0313609
3221.0000,0.0194658
3222.0000,0.00641865
3223.0000,-0.00547379
3224.0000,-0.0149048
3225.0000,-0.0219989
3226.0000,-0.0271831
3227.0000,-0.0308725
3228.0000,-0.0325731
3229.0000,-0.0316377
3230.0000,-0.0272598
3231.0000,-0.0194327
3232.0000,-0.00856092
3233.0000,0.0039987
3234.0000,0.0165341
3235.0000,0.0267558
3236.0000,0.0328226
3237.0000,0.0338362
3238.0000,0.0306028
3239.0000,0.0245892
3240.0000,0.0175907
3241.0000,0.0104029
3242.0000,0.00312778
3243.0000,-0.00477766
3244.0000,-0.0132135
3245.0000,-0.0213924
3246.0000,-0.0274203
3247.0000,-0.029711
3248.0000,-0.0273344
3249.0000,-0.020777
3250.0000,-0.0111486
3251.0000,-0.000323178
3252.0000,0.00986801
3253.0000,0.0176712
3254.0000,0.0222693
3255.0000,0.0235264
3256.0000,0.0221624
3257.0000,0.0188041
3258.0000,0.014059
3259.0000,0.00790519
3260.0000,0.000465154
3261.0000,-0.00808075
3262.0000,-0.016575
3263.0000,-0.0234392
3264.0000,-0.0268915
3265.0000,-0.0262626
3266.0000,-0.0217114
3267.0000,-0.014483
3268.0000,-0.00590657
3269.0000,0.00256817
3270.0000,0.0100182
3271.0000,0.0156637
3272.0000,0.0193701
3273.0000,0.0209733
3274.0000,0.0206523
3275.0000,0.018299
3276.0000,0.0140335
3277.0000,0.00787052
3278.0000,0.000447185
3279.0000,-0.00749444
3280.0000,-0.014585
3281.0000,-0.0197624
3282.0000,-0.0221556
3283.0000,-0.0218064
3284.0000,-0.0189555
3285.0000,-0.0142147
3286.0000,-0.00790987
3287.0000,-0.000618801
3288.0000,0.00708802
3289.0000,0.0142537
3290.0000,0.0202441
3291.0000,0.0242451
3292.0000,0.0258753
3293.0000,0.024785
3294.0000,0.0211201
3295.0000,0.0151382
3296.0000,0.00752155
3297.0000,-0.000950237
3298.0000,-0.00926013
3299.0000,-0.01664
3300.0000,-0.0223477
3301.0000,-0.0260175
3302.0000,-0.026962
3303.0000,-0.0248633
3304.0000,-0.0195653
3305.0000,-0.0119267
3306.0000,-0.00318768
3307.0000,0.00508777
3308.0000,0.012072
3309.0000,0.017145
3310.0000,0.0203629
3311.0000,0.0216986
3312.0000,0.0212383
3313.0000,0.0186958
3314.0000,0.0141696
3315.0000,0.00790104
3316.0000,0.000699033
3317.0000,-0.0067106
3318.0000,-0.0134189
3319.0000,-0.0186766
3320.0000,-0.0214431
3321.0000,-0.0213997
3322.0000,-0.0187656
3323.0000,-0.0147715
3324.0000,-0.0105474
3325.0000,-0.00684843
3326.0000,-0.00327502
3327.0000,0.000815723
3328.0000,0.00601136
3329.0000,0.0119024
3330.0000,0.0173855
3331.0000,0
3332.0000,0
3333.0000,0
3334.0000,0
3335.0000,0
3336.0000,0
3337.0000,0
3338.0000,0
3339.0000,0
3340.0000,0
3341.0000,0
3342.0000,0
3343.0000,0
3344.0000,0
3345.0000,0
3346.0000,0
3347.0000,0
3348.0000,0
3349.0000,0
3350.0000,0
3351.0000,0
3352.0000,0
3353.0000,0
3354.0000,0
3355.0000,0
3356.0000,0
3357.0000,0
3358.0000,0
3359.0000,0
3360.0000,0
3361.0000,0
3362.0000,0
3363.0000,0
3364.0000,0
3365.0000,0
3366.0000,0
3367.0000,0
3368.0000,0
3369.0000,0
3370.0000,0
3371.0000,0
3372.0000,0
3373.0000,0
3374.0000,0
3375.0000,0
3376.0000,0
3377.0000,0
3378.0000,0
3379.0000,0
3380.0000,0
3381.0000,0
3382.0000,0
3383.0000,0
3384.0000,0
3385.0000,0
3386.0000,0
3387.0000,0
3388.0000,0
3389.0000,0
3390.0000,0
3391.0000,0
3392.0000,0
3393.0000,0
3394.0000,0
3395.0000,0
3396.0000,0
3397.0000,0
3398.0000,0
3399.0000,0
3400.0000,0
3401.0000,0
3402.0000,0
3403.0000,0
3404.0000,0
3405.0000,0
3406.0000,0
3407.0000,0
3408.0000,0
3409.0000,0
3410.0000,0
3411.0000,0
3412.0000,0
3413.0000,0
3414.0000,0
3415.0000,0
3416.0000,0
3417.0000,0
3418.0000,0
3419.0000,0
3420.0000,0
3421.0000,0
3422.0000,0
3423.0000,0
3424.0000,0
3425.0000,0
3426.0000,0
3427.0000,0
3428.0000,0
3429.0000,0
3430.0000,0
3431.0000,0
3432.0000,0
3433.0000,0
3434.0000,0
3435.0000,0
3436.0000,0
3437.0000,0
3438.0000,0
3439.0000,0
3440.0000,0
3441.0000,0
3442.0000,0
3443.0000,0
3444.0000,0
3445.0000,0
3446.0000,0
3447.0000,0
3448.0000,0
3449.0000,0
3450.0000,0
3451.0000,0
3452.0000,0
3453.0000,0
3454.0000,0
3455.0000,0
3456.0000,0
3457.0000,0
3458.0000,0
3459.0000,0
3460.0000,0
3461.0000,0
3462.0000,0
3463.0000,0
3464.0000,0
3465.0000,0
3466.0000,0
3467.0000,0
3468.0000,0
3469.0000,0
3470.0000,0
3471.0000,0
3472.0000,0
3473.0000,0
3474.0000,0
3475.0000,0
3476.0000,0
3477.0000,0
3478.0000,0
3479.0000,0
3480.0000,0
3481.0000,0
3482.0000,0
3483.0000,0
3484.0000,0
3485.0000,0
3486.0000,0
3487.0000,0
3488.0000,0
3489.0000,0
3490.0000,0
3491.0000,0
3492.0000,0
3493.0000,0
3494.0000,0
3495.0000,0
3496.0000,0
3497.0000,0
3498.0000,0
3499.0000,0
3500.0000,0
3501.0000,0
3502.0000,0
3503.0000,0
3504.0000,0
3505.0000,0
3506.0000,0
3507.0000,0
3508.0000,0
3509.0000,0
3510.0000,0
3511.0000,0
3512.0000,0
3513.0000,0
3514.0000,0
3515.0000,0
3516.0000,0
3517.0000,0
3518.0000,0
3519.0000,0
3520.0000,0
3521.0000,0
3522.0000,0
3523.0000,0
3524.0000,0
3525.0000,0
3526.0000,0
3527.0000,0
3528.0000,0
3529.0000,0
3530.0000,0
3531.0000,0
3532.0000,0
3533.0000,0
3534.0000,0
3535.0000,0
3536.0000,0
3537.0000,0
3538.0000,0
3539.0000,0
3540.0000,0
3541.0000,0
3542.0000,0
3543.0000,0
3544.0000,0
3545.0000,0
3546.0000,0
3547.0000,0
3548.0000,0
3549.0000,0
3550.0000,0
3551.0000,0
3552.0000,0
3553.0000,0
3554.0000,0
3555.0000,0
3556.0000,0
3557.0000,0
3558.0000,0
3559.0000,0
3560.0000,0
3561.0000,0
3562.0000,0
3563.0000,0
3564.0000,0
3565.0000,0
3566.0000,0
3567.0000,0
3568.0000,0
3569.0000,0
3570.0000,0
3571.0000,0
3572.0000,0
3573.0000,0
3574.0000,0
3575.0000,0
3576.0000,0
3577.0000,0
3578.0000,0
3579.0000,0
3580.0000,0
3581.0000,0
3582.0000,0
3583.0000,0
3584.0000,0
3585.0000,0
3586.0000,0
3587.0000,0
3588.0000,0
3589.0000,0
3590.0000,0
3591.0000,0
3592.0000,0
3593.0000,0
3594.0000,0
3595.0000,0
3596.0000,0
3597.0000,0
3598.0000,0
3599.0000,0
3600.0000,0
3601.0000,0
3602.0000,0
3603.0000,0
3604.0000,0
3605.0000,0
3606.0000,0
3607.0000,0
3608.0000,0
3609.0000,0
3610.0000,0
3611.0000,0
3612.0000,0
3613.0000,0
3614.0000,0
3615.0000,0
3616.0000,0
3617.0000,0
3618.0000,0
3619.0000,0
3620.0000,0
3621.0000,0
3622.0000,0
3623.0000,0
3624.0000,0
3625.0000,0
3626.0000,0
3627.0000,0
3628.0000,0
3629.0000,0
3630.0000,0
3631.0000,0
3632.0000,0
3633.0000,0
3634.0000,0
3635.0000,0
3636.0000,0
3637.0000,0
3638.0000,0
3639.0000,0
3640.0000,0
3641.0000,0
3642.0000,0
3643.0000,0
3644.0000,0
3645.0000,0
3646.0000,0
3647.0000,0
3648.0000,0
3649.0000,0
3650.0000,0
3651.0000,0
3652.0000,0
3653.0000,0
3654.0000,0
3655.0000,0
3656.0000,0
3657.0000,0
3658.0000,0
3659.0000,0
3660.0000,0
3661.0000,0
3662.0000,0
3663.0000,0
3664.0000,0
3665.0000,0
3666.0000,0
3667.0000,0
3668.0000,0
3669.0000,0
3670.0000,0
3671.0000,0
3672.0000,0
3673.0000,0
3674.0000,0
3675.0000,0
3676.0000,0
3677.0000,0
3678.0000,0
3679.0000,0
3680.0000,0
3681.0000,0
3682.0000,0
3683.0000,0
3684.0000,0
3685.0000,0
3686.0000,0
3687.0000,0
3688.0000,0
3689.0000,0
3690.0000,0
3691.0000,0
3692.0000,0
3693.0000,0
3694.0000,0
3695.0000,0
3696.0000,0
3697.0000,0
3698.0000,0
3699.0000,0
3700.0000,0
3701.0000,0
3702.0000,0
3703.0000,0
3704.0000,0
3705.0000,0
3706.0000,0
3707.0000,0
3708.0000,0
3709.0000,0
3710.0000,0
3711.0000,0
3712.0000,0
3713.0000,0
3714.0000,0
3715.0000,0
3716.0000,0
3717.0000,0
3718.0000,0
3719.0000,0
3720.0000,0
3721.0000,0
3722.0000,0
3723.0000,0
3724.0000,0
3725.0000,0
3726.0000,0
3727.0000,0
3728.0000,0
3729.0000,0
3730.0000,0
3731.0000,0
3732.0000,0
3733.0000,0
3734.0000,0
3735.0000,0
3736.0000,0
3737.0000,0
3738.0000,0
3739.0000,0
3740.0000,0
3741.0000,0
3742.0000,0
3743.0000,0
3744.0000,0
3745.0000,0
3746.0000,0
3747.0000,0
3748.0000,0
3749.0000,0
3750.0000,0
3751.0000,0
3752.0000,0
3753.0000,0
3754.0000,0
3755.0000,0
3756.0000,0
3757.0000,0
3758.0000,0
3759.0000,0
3760.0000,0
3761.0000,0
3762.0000,0
3763.0000,0
3764.0000,0
3765.0000,0
3766.0000,0
3767.0000,0
3768.0000,0
3769.0000,0
3770.0000,0
3771.0000,0
3772.0000,0
3773.0000,0
3774.0000,0
3775.0000,0
3776.0000,0
3777.0000,0
3778.0000,0
3779.0000,0
3780.0000,0
3781.0000,0
3782.0000,0
3783.0000,0
3784.0000,0
3785.0000,0
3786.0000,0
3787.0000,0
3788.0000,0
3789.0000,0
3790.0000,0
3791.0000,0
3792.0000,0
3793.0000,0
3794.0000,0
3795.0000,0
3796.0000,0
3797.0000,0
3798.0000,0
3799.0000,0
3800.0000,0
3801.0000,0
3802.0000,0
3803.0000,0
3804.0000,0
3805.0000,0
3806.0000,0
3807.0000,0
3808.0000,0
3809.0000,0
3810.0000,0
3811.0000,0
3812.0000,0
3813.0000,0
3814.0000,0
3815.0000,0
3816.0000,0
3817.0000,0
3818.0000,0
3819.0000,0
3820.0000,0
3821.0000,0
3822.0000,0
3823.0000,0
3824.0000,0
3825.0000,0
3826.0000,0
3827.0000,0
3828.0000,0
3829.0000,0
3830.0000,0
3831.0000,0
3832.0000,0
3833.0000,0
3834.0000,0
3835.0000,0
3836.0000,0
3837.0000,0
3838.0000,0
3839.0000,0
3840.0000,0
3841.0000,0
3842.0000,0
3843.0000,0
3844.0000,0
3845.0000,0
3846.0000,0
3847.0000,0
3848.0000,0
3849.0000,0
3850.0000,0
3851.0000,0
3852.0000,0
3853.0000,0
3854.0000,0
3855.0000,0
3856.0000,0
3857.0000,0
3858.0000,0
3859.0000,0
3860.0000,0
3861.0000,0
3862.0000,0
3863.0000,0
3864.0000,0
3865.0000,0
3866.0000,0
3867.0000,0
3868.0000,0
3869.0000,0
3870.0000,0
3871.0000,0
3872.0000,0
3873.0000,0
3874.0000,0
3875.0000,0
3876.0000,0
3877.0000,0
3878.0000,0
3879.0000,0
3880.0000,0
3881.0000,0
3882.0000,0
3883.0000,0
3884.0000,0
3885.0000,0
3886.0000,0
3887.0000,0
3888.0000,0
3889.0000,0
3890.0000,0
3891.0000,0
3892.0000,0
3893.0000,0
3894.0000,0
3895.0000,0
3896.0000,0
3897.0000,0
3898.0000,0
3899.0000,0
3900.0000,0
3901.0000,0
3902.0000,0
3903.0000,0
3904.0000,0
3905.0000,0
3906.0000,0
3907.0000,0
3908.0000,0
3909.0000,0
3910.0000,0
3911.0000,0
3912.0000,0
3913.0000,0
3914.0000,0
3915.0000,0
3916.0000,0
3917.0000,0
3918.0000,0
3919.0000,0
3920.0000,0
3921.0000,0
3922.0000,0
3923.0000,0
3924.0000,0
3925.0000,0
3926.0000,0
3927.0000,0
3928.0000,0
3929.0000,0
3930.0000,0
3931.0000,0
3932.0000,0
3933.0000,0
3934.0000,0
3935.0000,0
3936.0000,0
3937.0000,0
3938.0000,0
3939.0000,0
3940.0000,0
3941.0000,0
3942.0000,0
3943.0000,0
3944.0000,0
3945.0000,0
3946.0000,0
3947.0000,0
3948.0000,0
3949.0000,0
3950.0000,0
3951.0000,0
3952.0000,0
3953.0000,0
3954.0000,0
3955.0000,0
3956.0000,0
3957.0000,0
3958.0000,0
3959.0000,0
3960.0000,0
3961.0000,0
3962.0000,0
3963.0000,0
3964.0000,0
3965.0000,0
3966.0000,0
3967.0000,0
3968.0000,0
3969.0000,0
3970.0000,0
3971.0000,0
3972.0000,0
3973.0000,0
3974.0000,0
3975.0000,0
3976.0000,0
3977.0000,0
3978.0000,0
3979.0000,0
3980.0000,0
3981.0000,0
3982.0000,0
3983.0000,0
3984.0000,0
3985.0000,0
3986.0000,0
3987.0000,0
3988.0000,0
3989.0000,0
3990.0000,0
3991.0000,0
3992.0000,0
3993.0000,0
3994.0000,0
3995.0000,0
3996.0000,0
3997.0000,0
3998.0000,0
3999.0000,0
4000.0000,0
4001.0000,0
4002.0000,0
4003.0000,0
4004.0000,0
4005.0000,0
4006.0000,0
4007.0000,0
4008.0000,0
4009.0000,0
4010.0000,0
4011.0000,0
4012.0000,0
4013.0000,0
4014.0000,0
4015.0000,0
4016.0000,0
4017.0000,0
4018.0000,0
4019.0000,0
4020.0000,0
4021.0000,0
4022.0000,0
4023.0000,0
4024.0000,0
4025.0000,0
4026.0000,0
4027.0000,0
4028.0000,0
4029.0000,0
4030.0000,0
4031.0000,0
4032.0000,0
4033.0000,0
4034.0000,0
4035.0000,0
4036.0000,0
4037.0000,0
4038.0000,0
4039.0000,0
4040.0000,0
4041.0000,0
4042.0000,0
4043.0000,0
4044.0000,0
4045.0000,0
4046.0000,0
4047.0000,0
4048.0000,0
4049.0000,0
4050.0000,0
4051.0000,0
4052.0000,0
4053.0000,0
4054.0000,0
4055.0000,0
4056.0000,0
4057.0000,0
4058.0000,0
4059.0000,0
4060.0000,0
4061.0000,0
4062.0000,0
4063.0000,0
4064.0000,0
4065.0000,0
4066.0000,0
4067.0000,0
4068.0000,0
4069.0000,0
4070.0000,0
4071.0000,0
4072.0000,0
4073.0000,0
4074.0000,0
4075.0000,0
4076.0000,0
4077.0000,0
4078.0000,0
4079.0000,0
4080.0000,0
4081.0000,0
4082.0000,0
4083.0000,0
4084.0000,0
4085.0000,0
4086.0000,0
4087.0000,0
4088.0000,0
4089.0000,0
4090.0000,0
4091.0000,0
4092.0000,0
4093.0000,0
4094.0000,0
4095.0000,0
4096.0000,0

##### Extended Information
[Rg]
,test
Rg,test
,test
,test
,NAIST

[f[^]
,2026/02/12 12:27

f[^^Cv,uf[^
,Position [AU]
c,Int.
X^[g,-4095 AU
Gh,4096 AU
f[^u,1 AU
f[^,8192    

[]
@,FT/IR-4600typeA
VA,E137161786

,2026/02/12 12:27

,W
o,TGS
Z,8
,8 cm-1
[tBO,On
A|_C[[V,Cosine
QC,Auto (1)
Ap[`[,Auto (7.1 mm)
XLXs[h,Auto (2 mm/sec)
tB^,Auto (30000 Hz)

