TITLE,test
DATA TYPE,INFRARED SPECTRUM
ORIGIN,JASCO
OWNER,test
DATE,26/02/12
TIME,12:27:47
SPECTROMETER/DATA SYSTEM,
LOCALE,1041
RESOLUTION,
DELTAX,1.92847
XUNITS,1/CM
YUNITS,REFLECTANCE
FIRSTX,  998.9459
LASTX, 6001.3891
NPOINTS,    2595
FIRSTY,   100.11481
MAXY,   100.17418
MINY,    99.96335
XYDATA
998.9459,100.115
1000.8743,100.118
1002.8028,100.12
1004.7313,100.122
1006.6597,100.123
1008.5882,100.121
1010.5167,100.118
1012.4451,100.113
1014.3736,100.108
1016.3021,100.106
1018.2305,100.107
1020.1590,100.112
1022.0875,100.119
1024.0160,100.124
1025.9445,100.126
1027.8729,100.126
1029.8014,100.125
1031.7299,100.126
1033.6583,100.129
1035.5868,100.134
1037.5153,100.138
1039.4437,100.14
1041.3722,100.138
1043.3007,100.135
1045.2291,100.132
1047.1576,100.132
1049.0861,100.135
1051.0145,100.14
1052.9430,100.145
1054.8715,100.148
1056.7999,100.147
1058.7284,100.145
1060.6569,100.143
1062.5853,100.142
1064.5138,100.145
1066.4423,100.151
1068.3707,100.158
1070.2992,100.166
1072.2277,100.171
1074.1561,100.174
1076.0846,100.174
1078.0131,100.172
1079.9415,100.169
1081.8700,100.164
1083.7985,100.161
1085.7269,100.158
1087.6554,100.156
1089.5839,100.155
1091.5123,100.154
1093.4408,100.153
1095.3693,100.152
1097.2977,100.152
1099.2262,100.154
1101.1547,100.157
1103.0831,100.162
1105.0116,100.165
1106.9401,100.166
1108.8685,100.164
1110.7970,100.159
1112.7255,100.154
1114.6539,100.15
1116.5824,100.15
1118.5109,100.151
1120.4393,100.153
1122.3678,100.154
1124.2963,100.153
1126.2247,100.15
1128.1532,100.147
1130.0817,100.144
1132.0101,100.142
1133.9386,100.142
1135.8671,100.143
1137.7955,100.144
1139.7240,100.143
1141.6525,100.141
1143.5809,100.139
1145.5094,100.137
1147.4379,100.137
1149.3663,100.138
1151.2948,100.14
1153.2233,100.141
1155.1517,100.141
1157.0802,100.139
1159.0087,100.138
1160.9371,100.137
1162.8656,100.137
1164.7941,100.137
1166.7225,100.137
1168.6510,100.137
1170.5795,100.134
1172.5079,100.131
1174.4364,100.126
1176.3649,100.122
1178.2933,100.119
1180.2218,100.117
1182.1503,100.116
1184.0787,100.116
1186.0072,100.117
1187.9357,100.117
1189.8641,100.116
1191.7926,100.115
1193.7211,100.115
1195.6495,100.115
1197.5780,100.116
1199.5065,100.117
1201.4349,100.118
1203.3634,100.118
1205.2919,100.116
1207.2203,100.114
1209.1488,100.112
1211.0773,100.112
1213.0057,100.112
1214.9342,100.113
1216.8627,100.113
1218.7911,100.113
1220.7196,100.111
1222.6481,100.109
1224.5765,100.108
1226.5050,100.108
1228.4335,100.109
1230.3619,100.111
1232.2904,100.113
1234.2189,100.114
1236.1473,100.115
1238.0758,100.113
1240.0043,100.109
1241.9327,100.105
1243.8612,100.102
1245.7897,100.101
1247.7181,100.101
1249.6466,100.103
1251.5751,100.104
1253.5035,100.104
1255.4320,100.103
1257.3605,100.101
1259.2889,100.099
1261.2174,100.097
1263.1459,100.096
1265.0743,100.096
1267.0028,100.096
1268.9313,100.096
1270.8597,100.096
1272.7882,100.097
1274.7167,100.097
1276.6451,100.098
1278.5736,100.098
1280.5021,100.097
1282.4305,100.096
1284.3590,100.095
1286.2875,100.095
1288.2159,100.096
1290.1444,100.098
1292.0729,100.099
1294.0013,100.1
1295.9298,100.1
1297.8583,100.1
1299.7867,100.099
1301.7152,100.099
1303.6437,100.099
1305.5721,100.098
1307.5006,100.097
1309.4291,100.095
1311.3575,100.094
1313.2860,100.092
1315.2145,100.091
1317.1429,100.091
1319.0714,100.091
1320.9999,100.092
1322.9283,100.093
1324.8568,100.094
1326.7853,100.094
1328.7137,100.094
1330.6422,100.094
1332.5707,100.094
1334.4991,100.094
1336.4276,100.093
1338.3561,100.093
1340.2845,100.093
1342.2130,100.095
1344.1415,100.096
1346.0699,100.097
1347.9984,100.098
1349.9269,100.098
1351.8553,100.097
1353.7838,100.096
1355.7123,100.096
1357.6407,100.095
1359.5692,100.096
1361.4977,100.097
1363.4261,100.098
1365.3546,100.1
1367.2831,100.1
1369.2115,100.1
1371.1400,100.099
1373.0685,100.098
1374.9969,100.098
1376.9254,100.098
1378.8539,100.1
1380.7823,100.102
1382.7108,100.104
1384.6393,100.105
1386.5677,100.103
1388.4962,100.1
1390.4247,100.097
1392.3531,100.094
1394.2816,100.093
1396.2101,100.092
1398.1385,100.093
1400.0670,100.094
1401.9955,100.095
1403.9240,100.097
1405.8524,100.099
1407.7809,100.1
1409.7094,100.1
1411.6378,100.098
1413.5663,100.095
1415.4948,100.091
1417.4232,100.088
1419.3517,100.086
1421.2802,100.086
1423.2086,100.087
1425.1371,100.088
1427.0656,100.088
1428.9940,100.087
1430.9225,100.087
1432.8510,100.087
1434.7794,100.089
1436.7079,100.09
1438.6364,100.092
1440.5648,100.092
1442.4933,100.092
1444.4218,100.092
1446.3502,100.09
1448.2787,100.088
1450.2072,100.086
1452.1356,100.083
1454.0641,100.08
1455.9926,100.079
1457.9210,100.079
1459.8495,100.08
1461.7780,100.083
1463.7064,100.084
1465.6349,100.085
1467.5634,100.084
1469.4918,100.083
1471.4203,100.081
1473.3488,100.081
1475.2772,100.083
1477.2057,100.085
1479.1342,100.088
1481.0626,100.088
1482.9911,100.088
1484.9196,100.085
1486.8480,100.082
1488.7765,100.079
1490.7050,100.076
1492.6334,100.073
1494.5619,100.072
1496.4904,100.07
1498.4188,100.067
1500.3473,100.063
1502.2758,100.058
1504.2042,100.053
1506.1327,100.049
1508.0612,100.049
1509.9896,100.051
1511.9181,100.055
1513.8466,100.058
1515.7750,100.059
1517.7035,100.058
1519.6320,100.056
1521.5604,100.057
1523.4889,100.06
1525.4174,100.065
1527.3458,100.07
1529.2743,100.072
1531.2028,100.072
1533.1312,100.069
1535.0597,100.063
1536.9882,100.057
1538.9166,100.053
1540.8451,100.054
1542.7736,100.058
1544.7020,100.064
1546.6305,100.069
1548.5590,100.071
1550.4874,100.071
1552.4159,100.069
1554.3444,100.067
1556.2728,100.066
1558.2013,100.068
1560.1298,100.071
1562.0582,100.075
1563.9867,100.077
1565.9152,100.078
1567.8436,100.078
1569.7721,100.077
1571.7006,100.079
1573.6290,100.082
1575.5575,100.086
1577.4860,100.091
1579.4144,100.094
1581.3429,100.095
1583.2714,100.095
1585.1998,100.093
1587.1283,100.091
1589.0568,100.089
1590.9852,100.089
1592.9137,100.089
1594.8422,100.09
1596.7706,100.09
1598.6991,100.091
1600.6276,100.091
1602.5560,100.091
1604.4845,100.091
1606.4130,100.09
1608.3414,100.088
1610.2699,100.085
1612.1984,100.083
1614.1268,100.081
1616.0553,100.08
1617.9838,100.079
1619.9122,100.078
1621.8407,100.076
1623.7692,100.075
1625.6976,100.073
1627.6261,100.071
1629.5546,100.07
1631.4830,100.069
1633.4115,100.068
1635.3400,100.068
1637.2684,100.069
1639.1969,100.07
1641.1254,100.07
1643.0538,100.068
1644.9823,100.063
1646.9108,100.057
1648.8392,100.051
1650.7677,100.048
1652.6962,100.051
1654.6246,100.057
1656.5531,100.065
1658.4816,100.07
1660.4100,100.071
1662.3385,100.07
1664.2670,100.067
1666.1954,100.063
1668.1239,100.059
1670.0524,100.057
1671.9808,100.056
1673.9093,100.057
1675.8378,100.057
1677.7662,100.057
1679.6947,100.057
1681.6232,100.057
1683.5516,100.058
1685.4801,100.062
1687.4086,100.065
1689.3370,100.068
1691.2655,100.068
1693.1940,100.065
1695.1224,100.061
1697.0509,100.056
1698.9794,100.052
1700.9078,100.053
1702.8363,100.059
1704.7648,100.065
1706.6932,100.07
1708.6217,100.073
1710.5502,100.073
1712.4786,100.07
1714.4071,100.067
1716.3356,100.067
1718.2640,100.071
1720.1925,100.076
1722.1210,100.082
1724.0494,100.084
1725.9779,100.083
1727.9064,100.079
1729.8348,100.074
1731.7633,100.069
1733.6918,100.066
1735.6202,100.066
1737.5487,100.068
1739.4772,100.069
1741.4056,100.069
1743.3341,100.068
1745.2626,100.067
1747.1910,100.067
1749.1195,100.068
1751.0480,100.071
1752.9764,100.074
1754.9049,100.077
1756.8334,100.08
1758.7618,100.082
1760.6903,100.082
1762.6188,100.082
1764.5472,100.08
1766.4757,100.077
1768.4042,100.074
1770.3326,100.071
1772.2611,100.069
1774.1896,100.07
1776.1180,100.071
1778.0465,100.074
1779.9750,100.076
1781.9034,100.077
1783.8319,100.077
1785.7604,100.076
1787.6888,100.073
1789.6173,100.072
1791.5458,100.071
1793.4742,100.071
1795.4027,100.073
1797.3312,100.076
1799.2596,100.077
1801.1881,100.079
1803.1166,100.079
1805.0450,100.08
1806.9735,100.08
1808.9020,100.08
1810.8304,100.081
1812.7589,100.082
1814.6874,100.083
1816.6158,100.083
1818.5443,100.083
1820.4728,100.082
1822.4012,100.08
1824.3297,100.077
1826.2582,100.075
1828.1866,100.074
1830.1151,100.076
1832.0436,100.078
1833.9720,100.081
1835.9005,100.082
1837.8290,100.082
1839.7574,100.08
1841.6859,100.079
1843.6144,100.078
1845.5428,100.079
1847.4713,100.081
1849.3998,100.083
1851.3282,100.085
1853.2567,100.086
1855.1852,100.086
1857.1136,100.086
1859.0421,100.085
1860.9706,100.083
1862.8990,100.081
1864.8275,100.08
1866.7560,100.079
1868.6844,100.079
1870.6129,100.08
1872.5414,100.083
1874.4698,100.086
1876.3983,100.089
1878.3268,100.09
1880.2552,100.09
1882.1837,100.089
1884.1122,100.087
1886.0406,100.085
1887.9691,100.083
1889.8976,100.083
1891.8260,100.083
1893.7545,100.085
1895.6830,100.086
1897.6115,100.088
1899.5399,100.089
1901.4684,100.089
1903.3969,100.088
1905.3253,100.088
1907.2538,100.087
1909.1823,100.086
1911.1107,100.085
1913.0392,100.085
1914.9677,100.084
1916.8961,100.083
1918.8246,100.083
1920.7531,100.083
1922.6815,100.082
1924.6100,100.082
1926.5385,100.083
1928.4669,100.084
1930.3954,100.085
1932.3239,100.087
1934.2523,100.088
1936.1808,100.088
1938.1093,100.088
1940.0377,100.088
1941.9662,100.087
1943.8947,100.088
1945.8231,100.09
1947.7516,100.091
1949.6801,100.092
1951.6085,100.092
1953.5370,100.092
1955.4655,100.09
1957.3939,100.089
1959.3224,100.087
1961.2509,100.087
1963.1793,100.087
1965.1078,100.088
1967.0363,100.089
1968.9647,100.09
1970.8932,100.09
1972.8217,100.09
1974.7501,100.09
1976.6786,100.091
1978.6071,100.092
1980.5355,100.093
1982.4640,100.093
1984.3925,100.092
1986.3209,100.09
1988.2494,100.088
1990.1779,100.088
1992.1063,100.088
1994.0348,100.089
1995.9633,100.091
1997.8917,100.093
1999.8202,100.094
2001.7487,100.095
2003.6771,100.095
2005.6056,100.094
2007.5341,100.093
2009.4625,100.091
2011.3910,100.089
2013.3195,100.087
2015.2479,100.086
2017.1764,100.087
2019.1049,100.087
2021.0333,100.087
2022.9618,100.087
2024.8903,100.087
2026.8187,100.088
2028.7472,100.088
2030.6757,100.09
2032.6041,100.091
2034.5326,100.091
2036.4611,100.091
2038.3895,100.091
2040.3180,100.09
2042.2465,100.089
2044.1749,100.088
2046.1034,100.088
2048.0320,100.088
2049.9604,100.087
2051.8889,100.087
2053.8174,100.088
2055.7458,100.088
2057.6743,100.089
2059.6028,100.089
2061.5313,100.089
2063.4597,100.088
2065.3882,100.086
2067.3167,100.086
2069.2451,100.086
2071.1736,100.087
2073.1021,100.088
2075.0305,100.089
2076.9590,100.09
2078.8875,100.091
2080.8159,100.091
2082.7444,100.091
2084.6729,100.091
2086.6013,100.09
2088.5298,100.089
2090.4583,100.089
2092.3867,100.089
2094.3152,100.091
2096.2437,100.092
2098.1721,100.093
2100.1006,100.094
2102.0291,100.094
2103.9575,100.093
2105.8860,100.093
2107.8145,100.092
2109.7429,100.092
2111.6714,100.092
2113.5999,100.091
2115.5283,100.091
2117.4568,100.091
2119.3853,100.091
2121.3137,100.092
2123.2422,100.092
2125.1707,100.092
2127.0991,100.091
2129.0276,100.091
2130.9561,100.092
2132.8845,100.093
2134.8130,100.094
2136.7415,100.095
2138.6699,100.095
2140.5984,100.095
2142.5269,100.095
2144.4553,100.094
2146.3838,100.092
2148.3123,100.089
2150.2407,100.087
2152.1692,100.085
2154.0977,100.084
2156.0261,100.085
2157.9546,100.088
2159.8831,100.091
2161.8115,100.093
2163.7400,100.094
2165.6685,100.094
2167.5969,100.093
2169.5254,100.091
2171.4539,100.089
2173.3823,100.089
2175.3108,100.089
2177.2393,100.09
2179.1677,100.092
2181.0962,100.093
2183.0247,100.093
2184.9531,100.092
2186.8816,100.091
2188.8101,100.09
2190.7385,100.089
2192.6670,100.088
2194.5955,100.087
2196.5239,100.086
2198.4524,100.086
2200.3809,100.085
2202.3093,100.085
2204.2378,100.085
2206.1663,100.085
2208.0947,100.086
2210.0232,100.086
2211.9517,100.087
2213.8801,100.088
2215.8086,100.089
2217.7371,100.089
2219.6655,100.089
2221.5940,100.088
2223.5225,100.087
2225.4509,100.087
2227.3794,100.087
2229.3079,100.088
2231.2363,100.089
2233.1648,100.09
2235.0933,100.09
2237.0217,100.09
2238.9502,100.09
2240.8787,100.09
2242.8071,100.09
2244.7356,100.09
2246.6641,100.09
2248.5925,100.09
2250.5210,100.089
2252.4495,100.089
2254.3779,100.088
2256.3064,100.088
2258.2349,100.088
2260.1633,100.088
2262.0918,100.088
2264.0203,100.089
2265.9487,100.09
2267.8772,100.09
2269.8057,100.091
2271.7341,100.091
2273.6626,100.091
2275.5911,100.092
2277.5195,100.092
2279.4480,100.092
2281.3765,100.091
2283.3049,100.089
2285.2334,100.088
2287.1619,100.086
2289.0903,100.086
2291.0188,100.086
2292.9473,100.086
2294.8757,100.086
2296.8042,100.086
2298.7327,100.085
2300.6611,100.084
2302.5896,100.083
2304.5181,100.083
2306.4465,100.082
2308.3750,100.082
2310.3035,100.082
2312.2319,100.081
2314.1604,100.08
2316.0889,100.079
2318.0173,100.077
2319.9458,100.074
2321.8743,100.071
2323.8027,100.067
2325.7312,100.063
2327.6597,100.058
2329.5881,100.054
2331.5166,100.052
2333.4451,100.052
2335.3735,100.053
2337.3020,100.056
2339.2305,100.06
2341.1589,100.063
2343.0874,100.066
2345.0159,100.068
2346.9443,100.068
2348.8728,100.067
2350.8013,100.064
2352.7297,100.061
2354.6582,100.058
2356.5867,100.056
2358.5151,100.054
2360.4436,100.054
2362.3721,100.055
2364.3005,100.055
2366.2290,100.057
2368.1575,100.06
2370.0859,100.064
2372.0144,100.069
2373.9429,100.074
2375.8713,100.079
2377.7998,100.083
2379.7283,100.086
2381.6567,100.088
2383.5852,100.09
2385.5137,100.09
2387.4421,100.089
2389.3706,100.088
2391.2991,100.088
2393.2275,100.087
2395.1560,100.087
2397.0845,100.087
2399.0129,100.088
2400.9414,100.088
2402.8699,100.087
2404.7983,100.086
2406.7268,100.084
2408.6553,100.083
2410.5837,100.082
2412.5122,100.082
2414.4407,100.082
2416.3691,100.082
2418.2976,100.082
2420.2261,100.082
2422.1545,100.083
2424.0830,100.084
2426.0115,100.085
2427.9399,100.086
2429.8684,100.086
2431.7969,100.086
2433.7253,100.085
2435.6538,100.084
2437.5823,100.083
2439.5107,100.083
2441.4392,100.083
2443.3677,100.084
2445.2961,100.085
2447.2246,100.086
2449.1531,100.086
2451.0815,100.087
2453.0100,100.086
2454.9385,100.085
2456.8669,100.085
2458.7954,100.085
2460.7239,100.084
2462.6523,100.084
2464.5808,100.083
2466.5093,100.081
2468.4377,100.08
2470.3662,100.08
2472.2947,100.08
2474.2231,100.081
2476.1516,100.081
2478.0801,100.082
2480.0085,100.082
2481.9370,100.082
2483.8655,100.081
2485.7939,100.08
2487.7224,100.079
2489.6509,100.079
2491.5793,100.08
2493.5078,100.081
2495.4363,100.082
2497.3647,100.082
2499.2932,100.082
2501.2217,100.081
2503.1501,100.08
2505.0786,100.08
2507.0071,100.08
2508.9355,100.082
2510.8640,100.083
2512.7925,100.084
2514.7209,100.084
2516.6494,100.083
2518.5779,100.082
2520.5063,100.08
2522.4348,100.08
2524.3633,100.08
2526.2917,100.081
2528.2202,100.083
2530.1487,100.084
2532.0771,100.085
2534.0056,100.085
2535.9341,100.084
2537.8625,100.083
2539.7910,100.082
2541.7195,100.081
2543.6479,100.081
2545.5764,100.082
2547.5049,100.082
2549.4333,100.083
2551.3618,100.083
2553.2903,100.083
2555.2188,100.082
2557.1472,100.081
2559.0757,100.08
2561.0042,100.079
2562.9326,100.078
2564.8611,100.077
2566.7896,100.078
2568.7180,100.079
2570.6465,100.082
2572.5750,100.084
2574.5034,100.087
2576.4319,100.088
2578.3604,100.089
2580.2888,100.09
2582.2173,100.09
2584.1458,100.089
2586.0742,100.086
2588.0027,100.083
2589.9312,100.081
2591.8596,100.079
2593.7881,100.079
2595.7166,100.08
2597.6450,100.082
2599.5735,100.083
2601.5020,100.084
2603.4304,100.083
2605.3589,100.083
2607.2874,100.083
2609.2158,100.083
2611.1443,100.084
2613.0728,100.085
2615.0012,100.086
2616.9297,100.085
2618.8582,100.083
2620.7866,100.081
2622.7151,100.079
2624.6436,100.079
2626.5720,100.079
2628.5005,100.079
2630.4290,100.079
2632.3574,100.078
2634.2859,100.078
2636.2144,100.077
2638.1428,100.077
2640.0713,100.077
2641.9998,100.077
2643.9282,100.077
2645.8567,100.077
2647.7852,100.076
2649.7136,100.075
2651.6421,100.076
2653.5706,100.076
2655.4990,100.078
2657.4275,100.079
2659.3560,100.079
2661.2844,100.079
2663.2129,100.078
2665.1414,100.077
2667.0698,100.075
2668.9983,100.074
2670.9268,100.072
2672.8552,100.07
2674.7837,100.068
2676.7122,100.066
2678.6406,100.066
2680.5691,100.066
2682.4976,100.067
2684.4260,100.068
2686.3545,100.07
2688.2830,100.071
2690.2114,100.072
2692.1399,100.072
2694.0684,100.072
2695.9968,100.073
2697.9253,100.073
2699.8538,100.073
2701.7822,100.073
2703.7107,100.073
2705.6392,100.072
2707.5676,100.071
2709.4961,100.07
2711.4246,100.071
2713.3530,100.072
2715.2815,100.074
2717.2100,100.075
2719.1384,100.075
2721.0669,100.074
2722.9954,100.073
2724.9238,100.072
2726.8523,100.071
2728.7808,100.071
2730.7092,100.071
2732.6377,100.072
2734.5662,100.073
2736.4946,100.073
2738.4231,100.074
2740.3516,100.075
2742.2800,100.076
2744.2085,100.077
2746.1370,100.078
2748.0654,100.078
2749.9939,100.078
2751.9224,100.078
2753.8508,100.077
2755.7793,100.077
2757.7078,100.077
2759.6362,100.077
2761.5647,100.078
2763.4932,100.078
2765.4216,100.078
2767.3501,100.078
2769.2786,100.078
2771.2070,100.078
2773.1355,100.077
2775.0640,100.077
2776.9924,100.076
2778.9209,100.075
2780.8494,100.074
2782.7778,100.074
2784.7063,100.073
2786.6348,100.074
2788.5632,100.075
2790.4917,100.076
2792.4202,100.076
2794.3486,100.076
2796.2771,100.075
2798.2056,100.073
2800.1340,100.071
2802.0625,100.069
2803.9910,100.068
2805.9194,100.068
2807.8479,100.067
2809.7764,100.067
2811.7048,100.067
2813.6333,100.068
2815.5618,100.069
2817.4902,100.07
2819.4187,100.071
2821.3472,100.072
2823.2756,100.072
2825.2041,100.071
2827.1326,100.07
2829.0610,100.069
2830.9895,100.067
2832.9180,100.065
2834.8464,100.063
2836.7749,100.062
2838.7034,100.061
2840.6318,100.06
2842.5603,100.061
2844.4888,100.061
2846.4172,100.063
2848.3457,100.064
2850.2742,100.067
2852.2026,100.07
2854.1311,100.073
2856.0596,100.076
2857.9880,100.077
2859.9165,100.076
2861.8450,100.074
2863.7734,100.071
2865.7019,100.068
2867.6304,100.066
2869.5588,100.067
2871.4873,100.068
2873.4158,100.071
2875.3442,100.074
2877.2727,100.076
2879.2012,100.078
2881.1296,100.079
2883.0581,100.079
2884.9866,100.078
2886.9150,100.076
2888.8435,100.075
2890.7720,100.074
2892.7004,100.073
2894.6289,100.073
2896.5574,100.074
2898.4858,100.075
2900.4143,100.077
2902.3428,100.078
2904.2712,100.079
2906.1997,100.079
2908.1282,100.079
2910.0566,100.079
2911.9851,100.079
2913.9136,100.079
2915.8420,100.079
2917.7705,100.079
2919.6990,100.079
2921.6274,100.079
2923.5559,100.079
2925.4844,100.079
2927.4128,100.079
2929.3413,100.08
2931.2698,100.079
2933.1982,100.079
2935.1267,100.079
2937.0552,100.079
2938.9836,100.079
2940.9121,100.079
2942.8406,100.079
2944.7690,100.079
2946.6975,100.079
2948.6260,100.08
2950.5544,100.081
2952.4829,100.082
2954.4114,100.084
2956.3398,100.084
2958.2683,100.083
2960.1968,100.082
2962.1252,100.081
2964.0537,100.08
2965.9822,100.08
2967.9106,100.08
2969.8391,100.08
2971.7676,100.08
2973.6960,100.08
2975.6245,100.08
2977.5530,100.081
2979.4814,100.082
2981.4099,100.084
2983.3384,100.084
2985.2668,100.084
2987.1953,100.083
2989.1238,100.081
2991.0522,100.078
2992.9807,100.075
2994.9092,100.073
2996.8376,100.072
2998.7661,100.071
3000.6946,100.072
3002.6230,100.072
3004.5515,100.071
3006.4800,100.07
3008.4084,100.069
3010.3369,100.068
3012.2654,100.068
3014.1938,100.069
3016.1223,100.071
3018.0508,100.073
3019.9792,100.075
3021.9077,100.077
3023.8362,100.077
3025.7646,100.076
3027.6931,100.073
3029.6216,100.07
3031.5500,100.069
3033.4785,100.069
3035.4070,100.07
3037.3354,100.071
3039.2639,100.072
3041.1924,100.071
3043.1208,100.07
3045.0493,100.07
3046.9778,100.071
3048.9063,100.073
3050.8347,100.076
3052.7632,100.078
3054.6917,100.08
3056.6201,100.081
3058.5486,100.082
3060.4771,100.083
3062.4055,100.085
3064.3340,100.086
3066.2625,100.087
3068.1909,100.087
3070.1194,100.087
3072.0479,100.087
3073.9763,100.087
3075.9048,100.086
3077.8333,100.086
3079.7617,100.085
3081.6902,100.085
3083.6187,100.085
3085.5471,100.084
3087.4756,100.083
3089.4041,100.081
3091.3325,100.079
3093.2610,100.077
3095.1895,100.076
3097.1179,100.075
3099.0464,100.074
3100.9749,100.075
3102.9033,100.076
3104.8318,100.077
3106.7603,100.078
3108.6887,100.078
3110.6172,100.077
3112.5457,100.077
3114.4741,100.078
3116.4026,100.08
3118.3311,100.08
3120.2595,100.08
3122.1880,100.077
3124.1165,100.073
3126.0449,100.069
3127.9734,100.068
3129.9019,100.068
3131.8303,100.07
3133.7588,100.073
3135.6873,100.075
3137.6157,100.076
3139.5442,100.075
3141.4727,100.076
3143.4011,100.076
3145.3296,100.078
3147.2581,100.08
3149.1865,100.081
3151.1150,100.081
3153.0435,100.08
3154.9719,100.077
3156.9004,100.073
3158.8289,100.07
3160.7573,100.067
3162.6858,100.065
3164.6143,100.065
3166.5427,100.064
3168.4712,100.063
3170.3997,100.063
3172.3281,100.063
3174.2566,100.064
3176.1851,100.067
3178.1135,100.07
3180.0420,100.074
3181.9705,100.077
3183.8989,100.078
3185.8274,100.077
3187.7559,100.076
3189.6843,100.073
3191.6128,100.072
3193.5413,100.071
3195.4697,100.071
3197.3982,100.073
3199.3267,100.074
3201.2551,100.075
3203.1836,100.076
3205.1121,100.075
3207.0405,100.074
3208.9690,100.072
3210.8975,100.071
3212.8259,100.069
3214.7544,100.067
3216.6829,100.065
3218.6113,100.064
3220.5398,100.063
3222.4683,100.063
3224.3967,100.063
3226.3252,100.065
3228.2537,100.067
3230.1821,100.07
3232.1106,100.073
3234.0391,100.074
3235.9675,100.075
3237.8960,100.075
3239.8245,100.073
3241.7529,100.072
3243.6814,100.071
3245.6099,100.07
3247.5383,100.069
3249.4668,100.069
3251.3953,100.068
3253.3237,100.069
3255.2522,100.07
3257.1807,100.072
3259.1091,100.074
3261.0376,100.075
3262.9661,100.074
3264.8945,100.073
3266.8230,100.071
3268.7515,100.069
3270.6799,100.067
3272.6084,100.066
3274.5369,100.064
3276.4653,100.061
3278.3938,100.059
3280.3223,100.057
3282.2507,100.057
3284.1792,100.057
3286.1077,100.058
3288.0361,100.059
3289.9646,100.059
3291.8931,100.057
3293.8215,100.056
3295.7500,100.055
3297.6785,100.055
3299.6069,100.056
3301.5354,100.057
3303.4639,100.058
3305.3923,100.057
3307.3208,100.055
3309.2493,100.052
3311.1777,100.048
3313.1062,100.045
3315.0347,100.044
3316.9631,100.045
3318.8916,100.047
3320.8201,100.05
3322.7485,100.053
3324.6770,100.056
3326.6055,100.057
3328.5339,100.058
3330.4624,100.058
3332.3909,100.057
3334.3193,100.056
3336.2478,100.055
3338.1763,100.054
3340.1047,100.055
3342.0332,100.056
3343.9617,100.058
3345.8901,100.06
3347.8186,100.061
3349.7471,100.061
3351.6755,100.059
3353.6040,100.056
3355.5325,100.054
3357.4609,100.053
3359.3894,100.054
3361.3179,100.055
3363.2463,100.057
3365.1748,100.059
3367.1033,100.059
3369.0317,100.059
3370.9602,100.059
3372.8887,100.057
3374.8171,100.054
3376.7456,100.051
3378.6741,100.049
3380.6025,100.047
3382.5310,100.047
3384.4595,100.049
3386.3879,100.052
3388.3164,100.055
3390.2449,100.058
3392.1733,100.06
3394.1018,100.062
3396.0303,100.062
3397.9587,100.062
3399.8872,100.061
3401.8157,100.059
3403.7441,100.057
3405.6726,100.055
3407.6011,100.053
3409.5295,100.051
3411.4580,100.049
3413.3865,100.047
3415.3149,100.046
3417.2434,100.047
3419.1719,100.048
3421.1003,100.05
3423.0288,100.052
3424.9573,100.053
3426.8857,100.053
3428.8142,100.053
3430.7427,100.052
3432.6711,100.052
3434.5996,100.052
3436.5281,100.052
3438.4565,100.051
3440.3850,100.049
3442.3135,100.047
3444.2419,100.046
3446.1704,100.046
3448.0989,100.049
3450.0273,100.053
3451.9558,100.057
3453.8843,100.058
3455.8127,100.056
3457.7412,100.052
3459.6697,100.048
3461.5981,100.045
3463.5266,100.044
3465.4551,100.045
3467.3835,100.045
3469.3120,100.043
3471.2405,100.039
3473.1689,100.036
3475.0974,100.034
3477.0259,100.035
3478.9543,100.04
3480.8828,100.046
3482.8113,100.051
3484.7397,100.054
3486.6682,100.054
3488.5967,100.051
3490.5251,100.048
3492.4536,100.045
3494.3821,100.042
3496.3105,100.041
3498.2390,100.04
3500.1675,100.041
3502.0959,100.043
3504.0244,100.046
3505.9529,100.048
3507.8813,100.048
3509.8098,100.047
3511.7383,100.045
3513.6667,100.044
3515.5952,100.043
3517.5237,100.043
3519.4521,100.042
3521.3806,100.041
3523.3091,100.039
3525.2375,100.039
3527.1660,100.04
3529.0945,100.043
3531.0229,100.045
3532.9514,100.046
3534.8799,100.045
3536.8083,100.044
3538.7368,100.044
3540.6653,100.044
3542.5938,100.044
3544.5222,100.044
3546.4507,100.042
3548.3792,100.04
3550.3076,100.039
3552.2361,100.04
3554.1646,100.042
3556.0930,100.044
3558.0215,100.043
3559.9500,100.039
3561.8784,100.032
3563.8069,100.026
3565.7354,100.023
3567.6638,100.025
3569.5923,100.032
3571.5208,100.039
3573.4492,100.044
3575.3777,100.046
3577.3062,100.044
3579.2346,100.039
3581.1631,100.033
3583.0916,100.027
3585.0200,100.022
3586.9485,100.019
3588.8770,100.018
3590.8054,100.019
3592.7339,100.021
3594.6624,100.023
3596.5908,100.025
3598.5193,100.027
3600.4478,100.027
3602.3762,100.026
3604.3047,100.024
3606.2332,100.02
3608.1616,100.015
3610.0901,100.01
3612.0186,100.005
3613.9470,100.003
3615.8755,100.003
3617.8040,100.004
3619.7324,100.006
3621.6609,100.006
3623.5894,100.005
3625.5178,100.004
3627.4463,100.005
3629.3748,100.009
3631.3032,100.018
3633.2317,100.028
3635.1602,100.036
3637.0886,100.039
3639.0171,100.037
3640.9456,100.029
3642.8740,100.016
3644.8025,100.002
3646.7310,99.9901
3648.6594,99.9851
3650.5879,99.9888
3652.5164,99.9989
3654.4448,100.011
3656.3733,100.021
3658.3018,100.029
3660.2302,100.033
3662.1587,100.032
3664.0872,100.028
3666.0156,100.018
3667.9441,100.003
3669.8726,99.9882
3671.8010,99.9785
3673.7295,99.9798
3675.6580,99.9918
3677.5864,100.008
3679.5149,100.02
3681.4434,100.025
3683.3718,100.024
3685.3003,100.018
3687.2288,100.012
3689.1572,100.01
3691.0857,100.014
3693.0142,100.02
3694.9426,100.026
3696.8711,100.03
3698.7996,100.031
3700.7280,100.028
3702.6565,100.024
3704.5850,100.019
3706.5134,100.014
3708.4419,100.011
3710.3704,100.011
3712.2988,100.013
3714.2273,100.017
3716.1558,100.019
3718.0842,100.019
3720.0127,100.018
3721.9412,100.017
3723.8696,100.015
3725.7981,100.013
3727.7266,100.008
3729.6550,100.002
3731.5835,99.9952
3733.5120,99.9889
3735.4404,99.9845
3737.3689,99.9817
3739.2974,99.9788
3741.2258,99.9742
3743.1543,99.9684
3745.0828,99.9637
3747.0112,99.9633
3748.9397,99.9694
3750.8682,99.9805
3752.7966,99.9927
3754.7251,100.003
3756.6536,100.009
3758.5820,100.013
3760.5105,100.014
3762.4390,100.015
3764.3674,100.017
3766.2959,100.021
3768.2244,100.027
3770.1528,100.032
3772.0813,100.034
3774.0098,100.033
3775.9382,100.028
3777.8667,100.022
3779.7952,100.017
3781.7236,100.017
3783.6521,100.021
3785.5806,100.028
3787.5090,100.035
3789.4375,100.038
3791.3660,100.035
3793.2944,100.027
3795.2229,100.016
3797.1514,100.005
3799.0798,99.9977
3801.0083,99.997
3802.9368,100.002
3804.8652,100.011
3806.7937,100.02
3808.7222,100.025
3810.6506,100.027
3812.5791,100.025
3814.5076,100.019
3816.4360,100.012
3818.3645,100.005
3820.2930,100.003
3822.2214,100.004
3824.1499,100.008
3826.0784,100.013
3828.0068,100.016
3829.9353,100.016
3831.8638,100.013
3833.7922,100.006
3835.7207,100
3837.6492,99.9978
3839.5776,100.002
3841.5061,100.01
3843.4346,100.018
3845.3630,100.024
3847.2915,100.025
3849.2200,100.024
3851.1484,100.022
3853.0769,100.024
3855.0054,100.03
3856.9338,100.037
3858.8623,100.041
3860.7908,100.042
3862.7192,100.04
3864.6477,100.038
3866.5762,100.037
3868.5046,100.039
3870.4331,100.042
3872.3616,100.045
3874.2900,100.046
3876.2185,100.046
3878.1470,100.045
3880.0754,100.046
3882.0039,100.047
3883.9324,100.049
3885.8608,100.05
3887.7893,100.051
3889.7178,100.051
3891.6462,100.05
3893.5747,100.048
3895.5032,100.043
3897.4316,100.037
3899.3601,100.031
3901.2886,100.028
3903.2170,100.029
3905.1455,100.035
3907.0740,100.043
3909.0024,100.049
3910.9309,100.053
3912.8594,100.054
3914.7878,100.052
3916.7163,100.051
3918.6448,100.05
3920.5732,100.051
3922.5017,100.051
3924.4302,100.051
3926.3586,100.049
3928.2871,100.047
3930.2156,100.045
3932.1440,100.046
3934.0725,100.048
3936.0010,100.05
3937.9294,100.05
3939.8579,100.047
3941.7864,100.042
3943.7148,100.036
3945.6433,100.032
3947.5718,100.033
3949.5002,100.037
3951.4287,100.043
3953.3572,100.048
3955.2856,100.051
3957.2141,100.052
3959.1426,100.052
3961.0710,100.052
3962.9995,100.053
3964.9280,100.055
3966.8564,100.057
3968.7849,100.056
3970.7134,100.053
3972.6418,100.048
3974.5703,100.044
3976.4988,100.041
3978.4272,100.04
3980.3557,100.041
3982.2842,100.043
3984.2126,100.045
3986.1411,100.047
3988.0696,100.046
3989.9980,100.045
3991.9265,100.044
3993.8550,100.043
3995.7834,100.044
3997.7119,100.046
3999.6404,100.049
4001.5688,100.053
4003.4973,100.055
4005.4258,100.056
4007.3542,100.055
4009.2827,100.053
4011.2112,100.051
4013.1396,100.05
4015.0681,100.049
4016.9966,100.049
4018.9250,100.051
4020.8535,100.054
4022.7820,100.057
4024.7104,100.061
4026.6389,100.062
4028.5674,100.062
4030.4958,100.06
4032.4243,100.058
4034.3528,100.058
4036.2813,100.061
4038.2097,100.065
4040.1382,100.068
4042.0667,100.069
4043.9951,100.067
4045.9236,100.064
4047.8521,100.061
4049.7805,100.06
4051.7090,100.061
4053.6375,100.063
4055.5659,100.065
4057.4944,100.068
4059.4229,100.07
4061.3513,100.07
4063.2798,100.068
4065.2083,100.066
4067.1367,100.064
4069.0652,100.064
4070.9937,100.065
4072.9221,100.068
4074.8506,100.071
4076.7791,100.071
4078.7075,100.068
4080.6360,100.065
4082.5645,100.061
4084.4929,100.058
4086.4214,100.057
4088.3499,100.056
4090.2783,100.057
4092.2068,100.057
4094.1353,100.055
4096.0640,100.054
4097.9922,100.052
4099.9209,100.05
4101.8491,100.05
4103.7778,100.052
4105.7061,100.054
4107.6348,100.058
4109.5630,100.061
4111.4917,100.063
4113.4199,100.064
4115.3486,100.062
4117.2769,100.059
4119.2056,100.055
4121.1338,100.05
4123.0625,100.048
4124.9907,100.048
4126.9194,100.053
4128.8477,100.06
4130.7764,100.068
4132.7046,100.075
4134.6333,100.078
4136.5615,100.079
4138.4902,100.076
4140.4185,100.072
4142.3472,100.066
4144.2754,100.061
4146.2041,100.057
4148.1323,100.055
4150.0610,100.055
4151.9893,100.057
4153.9180,100.06
4155.8462,100.062
4157.7749,100.063
4159.7031,100.063
4161.6318,100.062
4163.5601,100.061
4165.4888,100.061
4167.4170,100.061
4169.3457,100.062
4171.2739,100.062
4173.2026,100.062
4175.1309,100.063
4177.0596,100.064
4178.9878,100.065
4180.9165,100.066
4182.8447,100.067
4184.7734,100.068
4186.7017,100.07
4188.6304,100.073
4190.5586,100.077
4192.4873,100.081
4194.4155,100.082
4196.3442,100.081
4198.2725,100.078
4200.2012,100.075
4202.1294,100.072
4204.0581,100.073
4205.9863,100.075
4207.9150,100.079
4209.8433,100.083
4211.7720,100.086
4213.7002,100.088
4215.6289,100.088
4217.5571,100.088
4219.4858,100.087
4221.4141,100.084
4223.3428,100.081
4225.2710,100.076
4227.1997,100.072
4229.1279,100.07
4231.0566,100.07
4232.9849,100.072
4234.9136,100.076
4236.8418,100.08
4238.7705,100.082
4240.6987,100.083
4242.6274,100.081
4244.5557,100.08
4246.4844,100.078
4248.4126,100.076
4250.3413,100.075
4252.2695,100.074
4254.1982,100.074
4256.1265,100.074
4258.0552,100.075
4259.9834,100.075
4261.9121,100.074
4263.8403,100.073
4265.7690,100.072
4267.6973,100.073
4269.6260,100.075
4271.5542,100.078
4273.4829,100.08
4275.4111,100.081
4277.3398,100.08
4279.2681,100.078
4281.1968,100.077
4283.1250,100.079
4285.0537,100.082
4286.9819,100.086
4288.9106,100.09
4290.8389,100.093
4292.7676,100.094
4294.6958,100.095
4296.6245,100.094
4298.5527,100.092
4300.4814,100.088
4302.4097,100.082
4304.3384,100.077
4306.2666,100.074
4308.1953,100.073
4310.1235,100.076
4312.0522,100.081
4313.9805,100.086
4315.9092,100.088
4317.8374,100.089
4319.7661,100.087
4321.6943,100.084
4323.6230,100.082
4325.5513,100.08
4327.4800,100.078
4329.4082,100.077
4331.3369,100.076
4333.2651,100.075
4335.1938,100.075
4337.1221,100.076
4339.0508,100.079
4340.9790,100.083
4342.9077,100.089
4344.8359,100.093
4346.7646,100.095
4348.6929,100.094
4350.6216,100.09
4352.5498,100.087
4354.4785,100.084
4356.4067,100.083
4358.3354,100.085
4360.2637,100.089
4362.1924,100.093
4364.1206,100.096
4366.0493,100.096
4367.9775,100.094
4369.9063,100.09
4371.8345,100.087
4373.7632,100.086
4375.6914,100.086
4377.6201,100.086
4379.5483,100.086
4381.4771,100.087
4383.4053,100.088
4385.3340,100.09
4387.2622,100.093
4389.1909,100.095
4391.1191,100.096
4393.0479,100.094
4394.9761,100.091
4396.9048,100.087
4398.8330,100.085
4400.7617,100.085
4402.6899,100.087
4404.6187,100.09
4406.5469,100.093
4408.4756,100.095
4410.4038,100.097
4412.3325,100.099
4414.2607,100.101
4416.1895,100.103
4418.1177,100.103
4420.0464,100.101
4421.9746,100.096
4423.9033,100.09
4425.8315,100.085
4427.7603,100.083
4429.6885,100.085
4431.6172,100.09
4433.5454,100.095
4435.4741,100.097
4437.4023,100.095
4439.3311,100.09
4441.2593,100.086
4443.1880,100.084
4445.1162,100.085
4447.0449,100.09
4448.9731,100.095
4450.9019,100.1
4452.8301,100.102
4454.7588,100.101
4456.6870,100.099
4458.6157,100.097
4460.5439,100.097
4462.4727,100.098
4464.4009,100.1
4466.3296,100.102
4468.2578,100.103
4470.1865,100.102
4472.1147,100.1
4474.0435,100.098
4475.9717,100.096
4477.9004,100.094
4479.8286,100.093
4481.7573,100.093
4483.6855,100.093
4485.6143,100.094
4487.5425,100.093
4489.4712,100.092
4491.3994,100.09
4493.3281,100.088
4495.2563,100.087
4497.1851,100.087
4499.1133,100.09
4501.0420,100.093
4502.9702,100.096
4504.8989,100.098
4506.8271,100.1
4508.7559,100.101
4510.6841,100.1
4512.6128,100.098
4514.5410,100.094
4516.4697,100.088
4518.3979,100.083
4520.3267,100.079
4522.2549,100.079
4524.1836,100.081
4526.1118,100.087
4528.0405,100.094
4529.9688,100.101
4531.8975,100.106
4533.8257,100.109
4535.7544,100.109
4537.6826,100.11
4539.6113,100.11
4541.5396,100.11
4543.4683,100.109
4545.3965,100.106
4547.3252,100.102
4549.2534,100.097
4551.1821,100.093
4553.1104,100.092
4555.0391,100.093
4556.9673,100.098
4558.8960,100.104
4560.8242,100.109
4562.7529,100.113
4564.6812,100.116
4566.6099,100.116
4568.5381,100.114
4570.4668,100.111
4572.3950,100.107
4574.3237,100.102
4576.2520,100.098
4578.1807,100.095
4580.1089,100.093
4582.0376,100.092
4583.9658,100.091
4585.8945,100.091
4587.8228,100.092
4589.7515,100.092
4591.6797,100.093
4593.6084,100.094
4595.5366,100.094
4597.4653,100.095
4599.3936,100.096
4601.3223,100.097
4603.2505,100.098
4605.1792,100.099
4607.1074,100.099
4609.0361,100.1
4610.9644,100.101
4612.8931,100.102
4614.8213,100.106
4616.7500,100.109
4618.6782,100.112
4620.6069,100.112
4622.5352,100.11
4624.4639,100.106
4626.3921,100.103
4628.3208,100.101
4630.2490,100.101
4632.1777,100.102
4634.1060,100.104
4636.0347,100.105
4637.9629,100.105
4639.8916,100.103
4641.8198,100.099
4643.7485,100.095
4645.6768,100.091
4647.6055,100.091
4649.5337,100.093
4651.4624,100.098
4653.3906,100.103
4655.3193,100.106
4657.2476,100.105
4659.1763,100.102
4661.1045,100.098
4663.0332,100.096
4664.9614,100.095
4666.8901,100.095
4668.8184,100.094
4670.7471,100.091
4672.6753,100.088
4674.6040,100.085
4676.5322,100.085
4678.4609,100.086
4680.3892,100.088
4682.3179,100.09
4684.2461,100.09
4686.1748,100.09
4688.1030,100.09
4690.0317,100.092
4691.9600,100.094
4693.8887,100.096
4695.8169,100.098
4697.7456,100.099
4699.6738,100.099
4701.6025,100.098
4703.5308,100.096
4705.4595,100.095
4707.3877,100.094
4709.3164,100.095
4711.2446,100.097
4713.1733,100.099
4715.1016,100.101
4717.0303,100.103
4718.9585,100.103
4720.8872,100.102
4722.8154,100.101
4724.7441,100.102
4726.6724,100.106
4728.6011,100.111
4730.5293,100.116
4732.4580,100.119
4734.3862,100.12
4736.3149,100.117
4738.2432,100.113
4740.1719,100.11
4742.1001,100.109
4744.0288,100.108
4745.9570,100.106
4747.8857,100.102
4749.8140,100.099
4751.7427,100.097
4753.6709,100.097
4755.5996,100.1
4757.5278,100.102
4759.4565,100.101
4761.3848,100.098
4763.3135,100.093
4765.2417,100.09
4767.1704,100.09
4769.0986,100.093
4771.0273,100.098
4772.9556,100.104
4774.8843,100.109
4776.8125,100.113
4778.7412,100.116
4780.6694,100.117
4782.5981,100.115
4784.5264,100.109
4786.4551,100.101
4788.3833,100.093
4790.3120,100.088
4792.2402,100.087
4794.1689,100.09
4796.0972,100.095
4798.0259,100.101
4799.9541,100.104
4801.8828,100.106
4803.8110,100.105
4805.7397,100.102
4807.6680,100.098
4809.5967,100.094
4811.5249,100.09
4813.4536,100.09
4815.3818,100.094
4817.3105,100.101
4819.2388,100.109
4821.1675,100.116
4823.0957,100.119
4825.0244,100.119
4826.9526,100.116
4828.8813,100.112
4830.8096,100.109
4832.7383,100.106
4834.6665,100.103
4836.5952,100.1
4838.5234,100.097
4840.4521,100.095
4842.3804,100.094
4844.3091,100.095
4846.2373,100.097
4848.1660,100.099
4850.0942,100.101
4852.0229,100.101
4853.9512,100.101
4855.8799,100.102
4857.8081,100.105
4859.7368,100.109
4861.6650,100.113
4863.5938,100.116
4865.5220,100.117
4867.4507,100.116
4869.3789,100.114
4871.3076,100.113
4873.2358,100.112
4875.1646,100.112
4877.0928,100.112
4879.0215,100.111
4880.9497,100.11
4882.8784,100.108
4884.8066,100.106
4886.7354,100.106
4888.6636,100.105
4890.5923,100.105
4892.5205,100.105
4894.4492,100.105
4896.3774,100.107
4898.3062,100.109
4900.2344,100.112
4902.1631,100.114
4904.0913,100.115
4906.0200,100.116
4907.9482,100.117
4909.8770,100.119
4911.8052,100.121
4913.7339,100.122
4915.6621,100.122
4917.5908,100.122
4919.5190,100.121
4921.4478,100.121
4923.3760,100.123
4925.3047,100.124
4927.2329,100.124
4929.1616,100.122
4931.0898,100.117
4933.0186,100.112
4934.9468,100.109
4936.8755,100.11
4938.8037,100.113
4940.7324,100.118
4942.6606,100.121
4944.5894,100.121
4946.5176,100.119
4948.4463,100.115
4950.3745,100.112
4952.3032,100.11
4954.2314,100.108
4956.1602,100.106
4958.0884,100.103
4960.0171,100.099
4961.9453,100.096
4963.8740,100.096
4965.8022,100.098
4967.7310,100.102
4969.6592,100.107
4971.5879,100.112
4973.5161,100.115
4975.4448,100.116
4977.3730,100.115
4979.3018,100.114
4981.2300,100.111
4983.1587,100.108
4985.0869,100.104
4987.0156,100.101
4988.9438,100.1
4990.8726,100.101
4992.8008,100.105
4994.7295,100.109
4996.6577,100.112
4998.5864,100.112
5000.5146,100.11
5002.4434,100.107
5004.3716,100.107
5006.3003,100.108
5008.2285,100.111
5010.1572,100.112
5012.0854,100.11
5014.0142,100.106
5015.9424,100.101
5017.8711,100.098
5019.7993,100.099
5021.7280,100.103
5023.6563,100.109
5025.5850,100.113
5027.5132,100.116
5029.4419,100.117
5031.3701,100.116
5033.2988,100.113
5035.2271,100.109
5037.1558,100.106
5039.0840,100.103
5041.0127,100.105
5042.9409,100.109
5044.8696,100.117
5046.7979,100.124
5048.7266,100.129
5050.6548,100.13
5052.5835,100.128
5054.5117,100.124
5056.4404,100.121
5058.3687,100.119
5060.2974,100.12
5062.2256,100.123
5064.1543,100.126
5066.0825,100.129
5068.0112,100.131
5069.9395,100.132
5071.8682,100.13
5073.7964,100.128
5075.7251,100.125
5077.6533,100.123
5079.5820,100.12
5081.5103,100.118
5083.4390,100.115
5085.3672,100.114
5087.2959,100.115
5089.2241,100.119
5091.1528,100.124
5093.0811,100.129
5095.0098,100.132
5096.9380,100.131
5098.8667,100.128
5100.7949,100.126
5102.7236,100.125
5104.6519,100.125
5106.5806,100.124
5108.5088,100.121
5110.4375,100.117
5112.3657,100.113
5114.2944,100.113
5116.2227,100.116
5118.1514,100.121
5120.0796,100.127
5122.0083,100.132
5123.9365,100.137
5125.8652,100.14
5127.7935,100.143
5129.7222,100.146
5131.6504,100.146
5133.5791,100.145
5135.5073,100.142
5137.4360,100.138
5139.3643,100.136
5141.2930,100.135
5143.2212,100.135
5145.1499,100.136
5147.0781,100.137
5149.0068,100.135
5150.9351,100.132
5152.8638,100.127
5154.7920,100.122
5156.7207,100.116
5158.6489,100.113
5160.5776,100.112
5162.5059,100.114
5164.4346,100.117
5166.3628,100.121
5168.2915,100.123
5170.2197,100.124
5172.1484,100.125
5174.0767,100.128
5176.0054,100.131
5177.9336,100.132
5179.8623,100.129
5181.7905,100.122
5183.7192,100.114
5185.6475,100.107
5187.5762,100.104
5189.5044,100.106
5191.4331,100.111
5193.3613,100.117
5195.2900,100.122
5197.2183,100.126
5199.1470,100.13
5201.0752,100.134
5203.0039,100.136
5204.9321,100.135
5206.8608,100.132
5208.7891,100.128
5210.7178,100.126
5212.6460,100.127
5214.5747,100.131
5216.5029,100.133
5218.4316,100.133
5220.3599,100.129
5222.2886,100.124
5224.2168,100.121
5226.1455,100.121
5228.0737,100.122
5230.0024,100.122
5231.9307,100.12
5233.8594,100.116
5235.7876,100.113
5237.7163,100.113
5239.6445,100.116
5241.5732,100.122
5243.5015,100.128
5245.4302,100.131
5247.3584,100.131
5249.2871,100.129
5251.2153,100.125
5253.1440,100.123
5255.0723,100.121
5257.0010,100.12
5258.9292,100.118
5260.8579,100.114
5262.7861,100.109
5264.7148,100.105
5266.6431,100.102
5268.5718,100.103
5270.5000,100.105
5272.4287,100.11
5274.3569,100.115
5276.2856,100.121
5278.2139,100.126
5280.1426,100.131
5282.0708,100.133
5283.9995,100.133
5285.9277,100.129
5287.8564,100.125
5289.7847,100.122
5291.7134,100.122
5293.6416,100.123
5295.5703,100.126
5297.4985,100.127
5299.4272,100.127
5301.3555,100.126
5303.2842,100.127
5305.2124,100.131
5307.1411,100.137
5309.0693,100.144
5310.9980,100.147
5312.9263,100.145
5314.8550,100.137
5316.7832,100.125
5318.7119,100.112
5320.6401,100.102
5322.5688,100.096
5324.4971,100.095
5326.4258,100.097
5328.3540,100.101
5330.2827,100.105
5332.2109,100.106
5334.1396,100.105
5336.0679,100.102
5337.9966,100.101
5339.9248,100.102
5341.8535,100.106
5343.7817,100.112
5345.7104,100.117
5347.6387,100.119
5349.5674,100.117
5351.4956,100.114
5353.4243,100.111
5355.3525,100.111
5357.2813,100.111
5359.2095,100.112
5361.1382,100.111
5363.0664,100.108
5364.9951,100.106
5366.9233,100.106
5368.8521,100.106
5370.7803,100.106
5372.7090,100.105
5374.6372,100.102
5376.5659,100.099
5378.4941,100.097
5380.4229,100.097
5382.3511,100.099
5384.2798,100.099
5386.2080,100.098
5388.1367,100.094
5390.0649,100.088
5391.9937,100.083
5393.9219,100.082
5395.8506,100.089
5397.7788,100.101
5399.7075,100.116
5401.6357,100.13
5403.5645,100.137
5405.4927,100.138
5407.4214,100.134
5409.3496,100.127
5411.2783,100.121
5413.2065,100.116
5415.1353,100.112
5417.0635,100.108
5418.9922,100.104
5420.9204,100.1
5422.8491,100.099
5424.7773,100.101
5426.7061,100.106
5428.6343,100.113
5430.5630,100.12
5432.4912,100.124
5434.4199,100.126
5436.3481,100.126
5438.2769,100.125
5440.2051,100.122
5442.1338,100.121
5444.0620,100.121
5445.9907,100.124
5447.9189,100.128
5449.8477,100.132
5451.7759,100.132
5453.7046,100.129
5455.6328,100.123
5457.5615,100.117
5459.4897,100.114
5461.4185,100.113
5463.3467,100.115
5465.2754,100.115
5467.2036,100.112
5469.1323,100.107
5471.0605,100.101
5472.9893,100.099
5474.9175,100.1
5476.8462,100.104
5478.7744,100.11
5480.7031,100.114
5482.6313,100.116
5484.5601,100.118
5486.4883,100.12
5488.4170,100.121
5490.3452,100.122
5492.2739,100.12
5494.2021,100.117
5496.1309,100.113
5498.0591,100.11
5499.9878,100.109
5501.9160,100.109
5503.8447,100.108
5505.7729,100.106
5507.7017,100.105
5509.6299,100.105
5511.5586,100.107
5513.4868,100.11
5515.4155,100.114
5517.3438,100.117
5519.2725,100.12
5521.2007,100.124
5523.1294,100.128
5525.0576,100.131
5526.9863,100.132
5528.9146,100.13
5530.8433,100.127
5532.7715,100.124
5534.7002,100.122
5536.6284,100.123
5538.5571,100.122
5540.4854,100.12
5542.4141,100.115
5544.3423,100.11
5546.2710,100.109
5548.1992,100.113
5550.1279,100.121
5552.0562,100.13
5553.9849,100.137
5555.9131,100.14
5557.8418,100.139
5559.7700,100.138
5561.6987,100.137
5563.6270,100.136
5565.5557,100.134
5567.4839,100.13
5569.4126,100.123
5571.3408,100.114
5573.2695,100.106
5575.1978,100.103
5577.1265,100.106
5579.0547,100.116
5580.9834,100.128
5582.9116,100.139
5584.8403,100.144
5586.7686,100.139
5588.6973,100.127
5590.6255,100.114
5592.5542,100.104
5594.4824,100.102
5596.4111,100.109
5598.3394,100.121
5600.2681,100.131
5602.1963,100.138
5604.1250,100.14
5606.0532,100.14
5607.9819,100.14
5609.9102,100.139
5611.8389,100.138
5613.7671,100.133
5615.6958,100.126
5617.6240,100.119
5619.5527,100.115
5621.4810,100.117
5623.4097,100.123
5625.3379,100.132
5627.2666,100.139
5629.1948,100.141
5631.1235,100.137
5633.0518,100.128
5634.9805,100.118
5636.9087,100.112
5638.8374,100.111
5640.7656,100.117
5642.6943,100.126
5644.6226,100.133
5646.5513,100.135
5648.4795,100.13
5650.4082,100.119
5652.3364,100.107
5654.2651,100.097
5656.1934,100.091
5658.1221,100.092
5660.0503,100.098
5661.9790,100.106
5663.9072,100.115
5665.8359,100.122
5667.7642,100.125
5669.6929,100.125
5671.6211,100.123
5673.5498,100.119
5675.4780,100.117
5677.4067,100.118
5679.3350,100.122
5681.2637,100.127
5683.1919,100.134
5685.1206,100.138
5687.0488,100.141
5688.9775,100.14
5690.9058,100.137
5692.8345,100.133
5694.7627,100.129
5696.6914,100.124
5698.6196,100.118
5700.5483,100.112
5702.4766,100.107
5704.4053,100.104
5706.3335,100.105
5708.2622,100.11
5710.1904,100.115
5712.1191,100.119
5714.0474,100.119
5715.9761,100.115
5717.9043,100.11
5719.8330,100.105
5721.7612,100.102
5723.6899,100.101
5725.6182,100.102
5727.5469,100.102
5729.4751,100.1
5731.4038,100.098
5733.3320,100.097
5735.2607,100.099
5737.1890,100.103
5739.1177,100.11
5741.0459,100.118
5742.9746,100.127
5744.9028,100.136
5746.8315,100.144
5748.7598,100.149
5750.6885,100.151
5752.6167,100.149
5754.5454,100.141
5756.4736,100.131
5758.4023,100.122
5760.3306,100.116
5762.2593,100.116
5764.1875,100.119
5766.1162,100.123
5768.0444,100.125
5769.9731,100.123
5771.9014,100.12
5773.8301,100.117
5775.7583,100.117
5777.6870,100.122
5779.6152,100.13
5781.5439,100.138
5783.4722,100.142
5785.4009,100.14
5787.3291,100.132
5789.2578,100.122
5791.1860,100.112
5793.1147,100.107
5795.0430,100.108
5796.9717,100.113
5798.8999,100.119
5800.8286,100.121
5802.7568,100.118
5804.6855,100.11
5806.6138,100.1
5808.5425,100.09
5810.4707,100.084
5812.3994,100.081
5814.3276,100.082
5816.2563,100.085
5818.1846,100.091
5820.1133,100.098
5822.0415,100.105
5823.9702,100.108
5825.8984,100.109
5827.8271,100.105
5829.7554,100.1
5831.6841,100.095
5833.6123,100.095
5835.5410,100.1
5837.4692,100.11
5839.3979,100.121
5841.3262,100.129
5843.2549,100.132
5845.1831,100.13
5847.1118,100.126
5849.0400,100.124
5850.9688,100.123
5852.8970,100.125
5854.8257,100.126
5856.7539,100.126
5858.6826,100.124
5860.6108,100.123
5862.5396,100.123
5864.4678,100.123
5866.3965,100.12
5868.3247,100.114
5870.2534,100.105
5872.1816,100.096
5874.1104,100.089
5876.0386,100.087
5877.9673,100.089
5879.8955,100.093
5881.8242,100.099
5883.7524,100.105
5885.6812,100.113
5887.6094,100.124
5889.5381,100.133
5891.4663,100.139
5893.3950,100.138
5895.3232,100.129
5897.2520,100.116
5899.1802,100.104
5901.1089,100.096
5903.0371,100.096
5904.9658,100.1
5906.8940,100.105
5908.8228,100.108
5910.7510,100.108
5912.6797,100.107
5914.6079,100.107
5916.5366,100.112
5918.4648,100.121
5920.3936,100.13
5922.3218,100.138
5924.2505,100.141
5926.1787,100.139
5928.1074,100.134
5930.0356,100.128
5931.9644,100.125
5933.8926,100.124
5935.8213,100.125
5937.7495,100.126
5939.6782,100.125
5941.6064,100.121
5943.5352,100.116
5945.4634,100.111
5947.3921,100.11
5949.3203,100.112
5951.2490,100.117
5953.1772,100.124
5955.1060,100.13
5957.0342,100.135
5958.9629,100.136
5960.8911,100.134
5962.8198,100.129
5964.7480,100.122
5966.6768,100.116
5968.6050,100.115
5970.5337,100.122
5972.4619,100.135
5974.3906,100.149
5976.3188,100.158
5978.2476,100.157
5980.1758,100.146
5982.1045,100.132
5984.0327,100.122
5985.9614,100.12
5987.8896,100.125
5989.8184,100.13
5991.7466,100.132
5993.6753,100.126
5995.6035,100.117
5997.5322,100.107
5999.4604,100.101
6001.3892,100.099

##### Extended Information
[コメント情報]
試料名,test
コメント,test
測定者,test
所属,test
会社,NAIST

[データ情報]
作成日時,2026/02/12 12:27

データタイプ,等間隔データ
横軸,Wavenumber [cm-1]
縦軸,%R
スタート,998.946 cm-1
エンド,6001.39 cm-1
データ間隔,1.92847 cm-1
データ数,2595    

[測定情報]
機種名,FT/IR-4600typeA
シリアル番号,E137161786

測定日時,2026/02/12 12:27

光源,標準光源
検出器,TGS
積算回数,8
分解,8 cm-1
ゼロフィリング,On
アポダイゼーション,Cosine
ゲイン,Auto (1)
アパーチャー,Auto (7.1 mm)
スキャンスピード,Auto (2 mm/sec)
フィルタ,Auto (30000 Hz)

