TITLE,test
DATA TYPE,INFRARED SPECTRUM
ORIGIN,JASCO
OWNER,test
DATE,26/02/12
TIME,12:28:22
SPECTROMETER/DATA SYSTEM,
LOCALE,1041
RESOLUTION,
DELTAX,1.92847
XUNITS,1/CM
YUNITS,SB
FIRSTX,  998.9459
LASTX, 6001.3891
NPOINTS,    2595
FIRSTY,    37.77779
MAXY,    64.10593
MINY,     2.68397
XYDATA
998.9459,37.7778
1000.8743,37.8383
1002.8028,37.8642
1004.7313,37.8533
1006.6597,37.8037
1008.5882,37.7156
1010.5167,37.5927
1012.4451,37.4425
1014.3736,37.2753
1016.3021,37.1016
1018.2305,36.93
1020.1590,36.7656
1022.0875,36.61
1024.0160,36.462
1025.9445,36.3189
1027.8729,36.1777
1029.8014,36.0356
1031.7299,35.8899
1033.6583,35.7383
1035.5868,35.5794
1037.5153,35.4133
1039.4437,35.2412
1041.3722,35.0652
1043.3007,34.8875
1045.2291,34.7097
1047.1576,34.5318
1049.0861,34.3528
1051.0145,34.1711
1052.9430,33.9857
1054.8715,33.7969
1056.7999,33.6066
1058.7284,33.4181
1060.6569,33.2353
1062.5853,33.0618
1064.5138,32.9002
1066.4423,32.7523
1068.3707,32.6187
1070.2992,32.4997
1072.2277,32.3961
1074.1561,32.3091
1076.0846,32.2409
1078.0131,32.1939
1079.9415,32.1698
1081.8700,32.1695
1083.7985,32.193
1085.7269,32.2398
1087.6554,32.3093
1089.5839,32.401
1091.5123,32.5149
1093.4408,32.651
1095.3693,32.8096
1097.2977,32.9905
1099.2262,33.1935
1101.1547,33.4182
1103.0831,33.6636
1105.0116,33.9284
1106.9401,34.2116
1108.8685,34.5118
1110.7970,34.8279
1112.7255,35.1587
1114.6539,35.5026
1116.5824,35.8578
1118.5109,36.2226
1120.4393,36.5947
1122.3678,36.9719
1124.2963,37.3516
1126.2247,37.7312
1128.1532,38.1084
1130.0817,38.4816
1132.0101,38.8506
1133.9386,39.2154
1135.8671,39.5766
1137.7955,39.9339
1139.7240,40.2866
1141.6525,40.6341
1143.5809,40.9767
1145.5094,41.3162
1147.4379,41.6553
1149.3663,41.9967
1151.2948,42.3416
1153.2233,42.6889
1155.1517,43.0359
1157.0802,43.3796
1159.0087,43.7186
1160.9371,44.0524
1162.8656,44.3816
1164.7941,44.7061
1166.7225,45.025
1168.6510,45.3373
1170.5795,45.6432
1172.5079,45.9448
1174.4364,46.2463
1176.3649,46.5522
1178.2933,46.866
1180.2218,47.1888
1182.1503,47.5191
1184.0787,47.8533
1186.0072,48.1865
1187.9357,48.5137
1189.8641,48.8309
1191.7926,49.1365
1193.7211,49.4315
1195.6495,49.7193
1197.5780,50.0039
1199.5065,50.2878
1201.4349,50.5705
1203.3634,50.8497
1205.2919,51.1227
1207.2203,51.39
1209.1488,51.6553
1211.0773,51.9244
1213.0057,52.2016
1214.9342,52.4873
1216.8627,52.7782
1218.7911,53.0703
1220.7196,53.3619
1222.6481,53.6547
1224.5765,53.9524
1226.5050,54.2574
1228.4335,54.5693
1230.3619,54.8838
1232.2904,55.1942
1234.2189,55.4935
1236.1473,55.7757
1238.0758,56.038
1240.0043,56.2815
1241.9327,56.5098
1243.8612,56.7236
1245.7897,56.915
1247.7181,57.0634
1249.6466,57.1408
1251.5751,57.1256
1253.5035,57.02
1255.4320,56.86
1257.3605,56.7105
1259.2889,56.6435
1261.2174,56.7119
1263.1459,56.9299
1265.0743,57.2724
1267.0028,57.69
1268.9313,58.1305
1270.8597,58.5531
1272.7882,58.9318
1274.7167,59.2497
1276.6451,59.4933
1278.5736,59.6539
1280.5021,59.7326
1282.4305,59.7445
1284.3590,59.7165
1286.2875,59.6789
1288.2159,59.6551
1290.1444,59.655
1292.0729,59.6746
1294.0013,59.7011
1295.9298,59.7202
1297.8583,59.7225
1299.7867,59.7045
1301.7152,59.6642
1303.6437,59.5932
1305.5721,59.4734
1307.5006,59.2846
1309.4291,59.0217
1311.3575,58.7105
1313.2860,58.4078
1315.2145,58.1828
1317.1429,58.0884
1319.0714,58.1427
1320.9999,58.3253
1322.9283,58.5842
1324.8568,58.8395
1326.7853,58.9857
1328.7137,58.9082
1330.6422,58.5286
1332.5707,57.8651
1334.4991,57.0653
1336.4276,56.37
1338.3561,56.0098
1340.2845,56.0916
1342.2130,56.5488
1344.1415,57.1865
1346.0699,57.7855
1347.9984,58.1884
1349.9269,58.3189
1351.8553,58.1521
1353.7838,57.6917
1355.7123,56.9892
1357.6407,56.1773
1359.5692,55.4572
1361.4977,55.012
1363.4261,54.8982
1365.3546,55.0047
1367.2831,55.1284
1369.2115,55.1198
1371.1400,54.987
1373.0685,54.8741
1374.9969,54.9316
1376.9254,55.1855
1378.8539,55.504
1380.7823,55.6815
1382.7108,55.5619
1384.6393,55.1097
1386.5677,54.393
1388.4962,53.5224
1390.4247,52.6108
1392.3531,51.7767
1394.2816,51.1622
1396.2101,50.919
1398.1385,51.1551
1400.0670,51.8782
1401.9955,52.9741
1403.9240,54.2276
1405.8524,55.3624
1407.7809,56.0842
1409.7094,56.1392
1411.6378,55.4078
1413.5663,54.0109
1415.4948,52.3525
1417.4232,51.0194
1419.3517,50.5345
1421.2802,51.0815
1423.2086,52.3738
1425.1371,53.7773
1427.0656,54.6406
1428.9940,54.6417
1430.9225,53.9449
1432.8510,53.0792
1434.7794,52.6293
1436.7079,52.9327
1438.6364,53.9458
1440.5648,55.3121
1442.4933,56.5426
1444.4218,57.1858
1446.3502,56.9281
1448.2787,55.6461
1450.2072,53.4601
1452.1356,50.7825
1454.0641,48.289
1455.9926,46.7359
1457.9210,46.6434
1459.8495,47.9917
1461.7780,50.1395
1463.7064,52.0771
1465.6349,52.9287
1467.5634,52.4295
1469.4918,51.0828
1471.4203,49.8796
1473.3488,49.7332
1475.2772,50.9652
1477.2057,53.1418
1479.1342,55.3358
1481.0626,56.6293
1482.9911,56.5574
1484.9196,55.2696
1486.8480,53.3785
1488.7765,51.6292
1490.7050,50.5654
1492.6334,50.3184
1494.5619,50.5714
1496.4904,50.7061
1498.4188,50.0952
1500.3473,48.441
1502.2758,45.9949
1504.2042,43.4973
1506.1327,41.8128
1508.0612,41.4389
1509.9896,42.1907
1511.9181,43.2913
1513.8466,43.8406
1515.7750,43.3726
1517.7035,42.1415
1519.6320,40.954
1521.5604,40.6694
1523.4889,41.6894
1525.4174,43.7329
1527.3458,45.9846
1529.2743,47.484
1531.2028,47.5352
1533.1312,45.9753
1535.0597,43.2457
1536.9882,40.2735
1538.9166,38.1837
1540.8451,37.8853
1542.7736,39.6518
1544.7020,42.8944
1546.6305,46.3084
1548.5590,48.4111
1550.4874,48.2492
1552.4159,45.9066
1554.3444,42.5075
1556.2728,39.6832
1558.2013,38.7776
1560.1298,40.2234
1562.0582,43.4104
1563.9867,47.0792
1565.9152,49.9887
1567.8436,51.4839
1569.7721,51.6976
1571.7006,51.3467
1573.6290,51.2939
1575.5575,52.1245
1577.4860,53.9287
1579.4144,56.3439
1581.3429,58.7845
1583.2714,60.7225
1585.1998,61.8894
1587.1283,62.3261
1589.0568,62.2893
1590.9852,62.0829
1592.9137,61.9147
1594.8422,61.8444
1596.7706,61.8275
1598.6991,61.7987
1600.6276,61.7232
1602.5560,61.5843
1604.4845,61.3343
1606.4130,60.8676
1608.3414,60.055
1610.2699,58.8281
1612.1984,57.26
1614.1268,55.5888
1616.0553,54.1633
1617.9838,53.3245
1619.9122,53.2649
1621.8407,53.9168
1623.7692,54.9264
1625.6976,55.7577
1627.6261,55.9197
1629.5546,55.2282
1631.4830,53.9505
1633.4115,52.7021
1635.3400,52.1
1637.2684,52.3509
1639.1969,53.0444
1641.1254,53.3255
1643.0538,52.3912
1644.9823,50.0219
1646.9108,46.8124
1648.8392,43.9424
1650.7677,42.6093
1652.6962,43.4491
1654.6246,46.2532
1656.5531,50.0949
1658.4816,53.7517
1660.4100,56.192
1662.3385,56.922
1664.2670,56.0961
1666.1954,54.3862
1668.1239,52.6644
1670.0524,51.6097
1671.9808,51.3971
1673.9093,51.6426
1675.8378,51.6733
1677.7662,50.9991
1679.6947,49.6957
1681.6232,48.4166
1683.5516,47.977
1685.4801,48.7622
1687.4086,50.3667
1689.3370,51.7453
1691.2655,51.8147
1693.1940,50.1335
1695.1224,47.2287
1697.0509,44.3646
1698.9794,42.8984
1700.9078,43.5946
1702.8363,46.2615
1704.7648,49.8636
1706.6932,53.0175
1708.6217,54.6183
1710.5502,54.3188
1712.4786,52.6647
1714.4071,50.8285
1716.3356,50.0484
1718.2640,51.0199
1720.1925,53.5323
1722.1210,56.5508
1724.0494,58.7243
1725.9779,59.0653
1727.9064,57.4414
1729.8348,54.6166
1731.7633,51.8321
1733.6918,50.1701
1735.6202,50.0552
1737.5487,51.1433
1739.4772,52.6189
1741.4056,53.6922
1743.3341,54.0016
1745.2626,53.7171
1747.1910,53.3349
1749.1195,53.3355
1751.0480,53.9254
1752.9764,54.9917
1754.9049,56.2366
1756.8334,57.3533
1758.7618,58.1214
1760.6903,58.4015
1762.6188,58.1078
1764.5472,57.2375
1766.4757,55.9527
1768.4042,54.6231
1770.3326,53.7413
1772.2611,53.7187
1774.1896,54.6736
1776.1180,56.3516
1778.0465,58.2324
1779.9750,59.7577
1781.9034,60.5473
1783.8319,60.5022
1785.7604,59.7783
1787.6888,58.6873
1789.6173,57.587
1791.5458,56.7935
1793.4742,56.5154
1795.4027,56.8106
1797.3312,57.5784
1799.2596,58.6029
1801.1881,59.6367
1803.1166,60.4923
1805.0450,61.0994
1806.9735,61.5059
1808.9020,61.8292
1810.8304,62.1815
1812.7589,62.5982
1814.6874,62.9966
1816.6158,63.1884
1818.5443,62.9567
1820.4728,62.1793
1822.4012,60.9424
1824.3297,59.5719
1826.2582,58.5342
1828.1866,58.2288
1830.1151,58.7693
1832.0436,59.8828
1833.9720,61.0089
1835.9005,61.5722
1837.8290,61.2865
1839.7574,60.3176
1841.6859,59.1989
1843.6144,58.545
1845.5428,58.7308
1847.4713,59.7257
1849.3998,61.1628
1851.3282,62.5707
1853.2567,63.5992
1855.1852,64.1059
1857.1136,64.0964
1859.0421,63.6203
1860.9706,62.7376
1862.8990,61.5739
1864.8275,60.3854
1866.7560,59.5294
1868.6844,59.3209
1870.6129,59.8607
1872.5414,60.9607
1874.4698,62.2274
1876.3983,63.2507
1878.3268,63.7785
1880.2552,63.7815
1882.1837,63.3987
1884.1122,62.832
1886.0406,62.2663
1887.9691,61.8403
1889.8976,61.6474
1891.8260,61.728
1893.7545,62.0507
1895.6830,62.5049
1897.6115,62.9339
1899.5399,63.2011
1901.4684,63.251
1903.3969,63.1234
1905.3253,62.9077
1907.2538,62.6722
1909.1823,62.4192
1911.1107,62.0999
1913.0392,61.6774
1914.9677,61.189
1916.8961,60.7588
1918.8246,60.5444
1920.7531,60.6535
1922.6815,61.0829
1924.6100,61.7195
1926.5385,62.3942
1928.4669,62.9497
1930.3954,63.2815
1932.3239,63.3436
1934.2523,63.1392
1936.1808,62.7207
1938.1093,62.1963
1940.0377,61.7198
1941.9662,61.446
1943.8947,61.4638
1945.8231,61.7508
1947.7516,62.1848
1949.6801,62.6089
1951.6085,62.908
1953.5370,63.0461
1955.4655,63.0478
1957.3939,62.9528
1959.3224,62.7868
1961.2509,62.5684
1963.1793,62.3348
1965.1078,62.1509
1967.0363,62.0847
1968.9647,62.1658
1970.8932,62.3641
1972.8217,62.6053
1974.7501,62.8123
1976.6786,62.9375
1978.6071,62.9656
1980.5355,62.8942
1982.4640,62.7197
1984.3925,62.4463
1986.3209,62.1102
1988.2494,61.7898
1990.1779,61.5829
1992.1063,61.5587
1994.0348,61.7175
1995.9633,61.9879
1997.8917,62.2661
1999.8202,62.4691
2001.7487,62.5676
2003.6771,62.5789
2005.6056,62.5355
2007.5341,62.4556
2009.4625,62.3391
2011.3910,62.1865
2013.3195,62.0188
2015.2479,61.8786
2017.1764,61.8095
2019.1049,61.8298
2021.0333,61.921
2022.9618,62.0392
2024.8903,62.1397
2026.8187,62.1973
2028.7472,62.2089
2030.6757,62.1836
2032.6041,62.1306
2034.5326,62.0557
2036.4611,61.9665
2038.3895,61.8776
2040.3180,61.8091
2042.2465,61.7763
2044.1749,61.7817
2046.1034,61.8132
2048.0320,61.8506
2049.9604,61.8756
2051.8889,61.8768
2053.8174,61.8492
2055.7458,61.7922
2057.6743,61.7101
2059.6028,61.614
2061.5313,61.5232
2063.4597,61.4589
2065.3882,61.4352
2067.3167,61.4504
2069.2451,61.4876
2071.1736,61.5241
2073.1021,61.5425
2075.0305,61.5381
2076.9590,61.516
2078.8875,61.4836
2080.8159,61.4442
2082.7444,61.3973
2084.6729,61.3427
2086.6013,61.2857
2088.5298,61.2353
2090.4583,61.1994
2092.3867,61.1794
2094.3152,61.1691
2096.2437,61.1586
2098.1721,61.1404
2100.1006,61.1122
2102.0291,61.0761
2103.9575,61.0352
2105.8860,60.9912
2107.8145,60.9443
2109.7429,60.8949
2111.6714,60.8456
2113.5999,60.8
2115.5283,60.7608
2117.4568,60.7287
2119.3853,60.7018
2121.3137,60.6769
2123.2422,60.6509
2125.1707,60.6215
2127.0991,60.5876
2129.0276,60.5489
2130.9561,60.5069
2132.8845,60.4645
2134.8130,60.4253
2136.7415,60.3918
2138.6699,60.3639
2140.5984,60.3379
2142.5269,60.3086
2144.4553,60.2717
2146.3838,60.2256
2148.3123,60.1718
2150.2407,60.1135
2152.1692,60.0535
2154.0977,59.993
2156.0261,59.9324
2157.9546,59.8717
2159.8831,59.8118
2161.8115,59.7535
2163.7400,59.6978
2165.6685,59.6444
2167.5969,59.5924
2169.5254,59.541
2171.4539,59.4895
2173.3823,59.4379
2175.3108,59.3862
2177.2393,59.3348
2179.1677,59.2837
2181.0962,59.2331
2183.0247,59.183
2184.9531,59.1336
2186.8816,59.0848
2188.8101,59.0362
2190.7385,58.9873
2192.6670,58.9376
2194.5955,58.8865
2196.5239,58.8339
2198.4524,58.7796
2200.3809,58.7237
2202.3093,58.6665
2204.2378,58.6082
2206.1663,58.5492
2208.0947,58.49
2210.0232,58.4308
2211.9517,58.3716
2213.8801,58.3119
2215.8086,58.2514
2217.7371,58.1893
2219.6655,58.1252
2221.5940,58.0591
2223.5225,57.9909
2225.4509,57.9209
2227.3794,57.8492
2229.3079,57.776
2231.2363,57.7014
2233.1648,57.625
2235.0933,57.5465
2237.0217,57.4649
2238.9502,57.3794
2240.8787,57.2895
2242.8071,57.1941
2244.7356,57.0922
2246.6641,56.9823
2248.5925,56.8633
2250.5210,56.7349
2252.4495,56.5978
2254.3779,56.4533
2256.3064,56.303
2258.2349,56.1493
2260.1633,55.9949
2262.0918,55.8434
2264.0203,55.6985
2265.9487,55.5634
2267.8772,55.4416
2269.8057,55.3382
2271.7341,55.2596
2273.6626,55.2104
2275.5911,55.1872
2277.5195,55.1736
2279.4480,55.141
2281.3765,55.0545
2283.3049,54.8845
2285.2334,54.6147
2287.1619,54.2459
2289.0903,53.7927
2291.0188,53.2759
2292.9473,52.712
2294.8757,52.1046
2296.8042,51.4387
2298.7327,50.6831
2300.6611,49.8011
2302.5896,48.7655
2304.5181,47.5691
2306.4465,46.2244
2308.3750,44.7536
2310.3035,43.1765
2312.2319,41.5079
2314.1604,39.7642
2316.0889,37.9727
2318.0173,36.1751
2319.9458,34.4225
2321.8743,32.768
2323.8027,31.2607
2325.7312,29.9395
2327.6597,28.8218
2329.5881,27.8927
2331.5166,27.1105
2333.4451,26.4425
2335.3735,25.9188
2337.3020,25.6617
2339.2305,25.8433
2341.1589,26.5677
2343.0874,27.7358
2345.0159,28.9926
2346.9443,29.8204
2348.8728,29.7559
2350.8013,28.616
2352.7297,26.6012
2354.6582,24.2131
2356.5867,22.0363
2358.5151,20.5144
2360.4436,19.8365
2362.3721,19.9694
2364.3005,20.7806
2366.2290,22.156
2368.1575,24.0478
2370.0859,26.4473
2372.0144,29.3248
2373.9429,32.5823
2375.8713,36.0434
2377.7998,39.4771
2379.7283,42.6408
2381.6567,45.3271
2383.5852,47.4062
2385.5137,48.8488
2387.4421,49.7224
2389.3706,50.1604
2391.2991,50.3153
2393.2275,50.3168
2395.1560,50.2506
2397.0845,50.1604
2399.0129,50.0627
2400.9414,49.9625
2402.8699,49.8614
2404.7983,49.7601
2406.7268,49.6584
2408.6553,49.5559
2410.5837,49.4527
2412.5122,49.3498
2414.4407,49.2473
2416.3691,49.145
2418.2976,49.0417
2420.2261,48.9371
2422.1545,48.8319
2424.0830,48.7269
2426.0115,48.6228
2427.9399,48.5196
2429.8684,48.4169
2431.7969,48.3145
2433.7253,48.2121
2435.6538,48.1096
2437.5823,48.0068
2439.5107,47.9036
2441.4392,47.8
2443.3677,47.6967
2445.2961,47.5938
2447.2246,47.4914
2449.1531,47.3893
2451.0815,47.2872
2453.0100,47.1853
2454.9385,47.0839
2456.8669,46.9831
2458.7954,46.8827
2460.7239,46.7825
2462.6523,46.6821
2464.5808,46.5815
2466.5093,46.4805
2468.4377,46.3793
2470.3662,46.2782
2472.2947,46.1774
2474.2231,46.0771
2476.1516,45.9772
2478.0801,45.8775
2480.0085,45.7775
2481.9370,45.6773
2483.8655,45.5771
2485.7939,45.4772
2487.7224,45.3778
2489.6509,45.2789
2491.5793,45.18
2493.5078,45.0811
2495.4363,44.9819
2497.3647,44.8824
2499.2932,44.7829
2501.2217,44.6835
2503.1501,44.5846
2505.0786,44.4861
2507.0071,44.3879
2508.9355,44.2895
2510.8640,44.1908
2512.7925,44.0918
2514.7209,43.9928
2516.6494,43.8942
2518.5779,43.7962
2520.5063,43.6988
2522.4348,43.6018
2524.3633,43.5049
2526.2917,43.4082
2528.2202,43.3116
2530.1487,43.2153
2532.0771,43.1193
2534.0056,43.0237
2535.9341,42.9284
2537.8625,42.8335
2539.7910,42.7388
2541.7195,42.6442
2543.6479,42.5498
2545.5764,42.4555
2547.5049,42.3614
2549.4333,42.2676
2551.3618,42.174
2553.2903,42.0806
2555.2188,41.9872
2557.1472,41.8939
2559.0757,41.8007
2561.0042,41.7076
2562.9326,41.6148
2564.8611,41.5224
2566.7896,41.4302
2568.7180,41.3382
2570.6465,41.2461
2572.5750,41.1539
2574.5034,41.0616
2576.4319,40.9696
2578.3604,40.8779
2580.2888,40.7868
2582.2173,40.6962
2584.1458,40.606
2586.0742,40.5161
2588.0027,40.4264
2589.9312,40.3367
2591.8596,40.2472
2593.7881,40.1579
2595.7166,40.0688
2597.6450,39.9799
2599.5735,39.8912
2601.5020,39.8026
2603.4304,39.7141
2605.3589,39.6257
2607.2874,39.5377
2609.2158,39.4503
2611.1443,39.3635
2613.0728,39.2772
2615.0012,39.191
2616.9297,39.1046
2618.8582,39.0182
2620.7866,38.9319
2622.7151,38.8462
2624.6436,38.7613
2626.5720,38.6773
2628.5005,38.5939
2630.4290,38.5106
2632.3574,38.4273
2634.2859,38.3441
2636.2144,38.2612
2638.1428,38.1788
2640.0713,38.0968
2641.9998,38.0152
2643.9282,37.9338
2645.8567,37.8526
2647.7852,37.7714
2649.7136,37.6904
2651.6421,37.6098
2653.5706,37.5294
2655.4990,37.4493
2657.4275,37.3696
2659.3560,37.2903
2661.2844,37.2115
2663.2129,37.1332
2665.1414,37.055
2667.0698,36.9764
2668.9983,36.8973
2670.9268,36.8176
2672.8552,36.7381
2674.7837,36.6596
2676.7122,36.5826
2678.6406,36.5075
2680.5691,36.4336
2682.4976,36.3605
2684.4260,36.2873
2686.3545,36.2139
2688.2830,36.1401
2690.2114,36.0664
2692.1399,35.9929
2694.0684,35.9196
2695.9968,35.8466
2697.9253,35.7738
2699.8538,35.7011
2701.7822,35.6285
2703.7107,35.5562
2705.6392,35.4841
2707.5676,35.4124
2709.4961,35.3407
2711.4246,35.2688
2713.3530,35.1963
2715.2815,35.1232
2717.2100,35.05
2719.1384,34.9775
2721.0669,34.9065
2722.9954,34.8373
2724.9238,34.7696
2726.8523,34.7026
2728.7808,34.6358
2730.7092,34.569
2732.6377,34.5024
2734.5662,34.4361
2736.4946,34.3697
2738.4231,34.3026
2740.3516,34.2346
2742.2800,34.1657
2744.2085,34.0969
2746.1370,34.029
2748.0654,33.9627
2749.9939,33.8977
2751.9224,33.8331
2753.8508,33.7682
2755.7793,33.7028
2757.7078,33.6371
2759.6362,33.5716
2761.5647,33.5062
2763.4932,33.4406
2765.4216,33.3743
2767.3501,33.3071
2769.2786,33.2396
2771.2070,33.1727
2773.1355,33.1071
2775.0640,33.0427
2776.9924,32.9788
2778.9209,32.9144
2780.8494,32.8491
2782.7778,32.7829
2784.7063,32.7164
2786.6348,32.6502
2788.5632,32.5848
2790.4917,32.5201
2792.4202,32.4564
2794.3486,32.3936
2796.2771,32.3317
2798.2056,32.2704
2800.1340,32.2092
2802.0625,32.1477
2803.9910,32.0856
2805.9194,32.0232
2807.8479,31.961
2809.7764,31.8995
2811.7048,31.8383
2813.6333,31.7771
2815.5618,31.7153
2817.4902,31.6527
2819.4187,31.5899
2821.3472,31.5271
2823.2756,31.464
2825.2041,31.3994
2827.1326,31.332
2829.0610,31.2609
2830.9895,31.1862
2832.9180,31.108
2834.8464,31.0248
2836.7749,30.9331
2838.7034,30.8282
2840.6318,30.7077
2842.5603,30.574
2844.4888,30.4362
2846.4172,30.3076
2848.3457,30.2014
2850.2742,30.1257
2852.2026,30.081
2854.1311,30.061
2856.0596,30.0555
2857.9880,30.0543
2859.9165,30.0497
2861.8450,30.037
2863.7734,30.0144
2865.7019,29.9827
2867.6304,29.9445
2869.5588,29.9033
2871.4873,29.862
2873.4158,29.8221
2875.3442,29.7828
2877.2727,29.7421
2879.2012,29.6974
2881.1296,29.6471
2883.0581,29.5906
2884.9866,29.5283
2886.9150,29.4611
2888.8435,29.3896
2890.7720,29.3149
2892.7004,29.2378
2894.6289,29.1594
2896.5574,29.0804
2898.4858,29.0007
2900.4143,28.9189
2902.3428,28.8324
2904.2712,28.7373
2906.1997,28.6302
2908.1282,28.51
2910.0566,28.3788
2911.9851,28.2434
2913.9136,28.1131
2915.8420,27.9979
2917.7705,27.9054
2919.6990,27.839
2921.6274,27.7981
2923.5559,27.7795
2925.4844,27.7791
2927.4128,27.7926
2929.3413,27.8156
2931.2698,27.8441
2933.1982,27.8738
2935.1267,27.9007
2937.0552,27.9215
2938.9836,27.9335
2940.9121,27.9345
2942.8406,27.9225
2944.7690,27.896
2946.6975,27.8541
2948.6260,27.7978
2950.5544,27.7294
2952.4829,27.6532
2954.4114,27.5743
2956.3398,27.4987
2958.2683,27.4324
2960.1968,27.3809
2962.1252,27.348
2964.0537,27.3344
2965.9822,27.3377
2967.9106,27.3523
2969.8391,27.3712
2971.7676,27.3884
2973.6960,27.4003
2975.6245,27.406
2977.5530,27.4059
2979.4814,27.4003
2981.4099,27.3884
2983.3384,27.3689
2985.2668,27.3414
2987.1953,27.3068
2989.1238,27.2681
2991.0522,27.2284
2992.9807,27.1901
2994.9092,27.154
2996.8376,27.1187
2998.7661,27.0815
3000.6946,27.0388
3002.6230,26.9873
3004.5515,26.9254
3006.4800,26.8544
3008.4084,26.7792
3010.3369,26.7076
3012.2654,26.6479
3014.1938,26.6053
3016.1223,26.5796
3018.0508,26.5639
3019.9792,26.5467
3021.9077,26.5164
3023.8362,26.4664
3025.7646,26.3981
3027.6931,26.3211
3029.6216,26.2488
3031.5500,26.1926
3033.4785,26.157
3035.4070,26.1376
3037.3354,26.1244
3039.2639,26.1062
3041.1924,26.0755
3043.1208,26.0308
3045.0493,25.9757
3046.9778,25.916
3048.9063,25.857
3050.8347,25.8013
3052.7632,25.7486
3054.6917,25.696
3056.6201,25.6401
3058.5486,25.5798
3060.4771,25.5174
3062.4055,25.4591
3064.3340,25.4112
3066.2625,25.3763
3068.1909,25.3503
3070.1194,25.3235
3072.0479,25.2856
3073.9763,25.2317
3075.9048,25.1658
3077.8333,25.0981
3079.7617,25.0401
3081.6902,24.9975
3083.6187,24.9677
3085.5471,24.9414
3087.4756,24.9077
3089.4041,24.8594
3091.3325,24.7953
3093.2610,24.7208
3095.1895,24.6446
3097.1179,24.5759
3099.0464,24.5208
3100.9749,24.48
3102.9033,24.449
3104.8318,24.4194
3106.7603,24.3825
3108.6887,24.3323
3110.6172,24.2682
3112.5457,24.1948
3114.4741,24.1206
3116.4026,24.0538
3118.3311,24.0003
3120.2595,23.9611
3122.1880,23.9329
3124.1165,23.9098
3126.0449,23.8855
3127.9734,23.8561
3129.9019,23.8213
3131.8303,23.7836
3133.7588,23.7465
3135.6873,23.7122
3137.6157,23.6804
3139.5442,23.6483
3141.4727,23.6125
3143.4011,23.5706
3145.3296,23.523
3147.2581,23.472
3149.1865,23.421
3151.1150,23.3725
3153.0435,23.3272
3154.9719,23.284
3156.9004,23.2407
3158.8289,23.1959
3160.7573,23.1489
3162.6858,23.1004
3164.6143,23.0507
3166.5427,22.9994
3168.4712,22.9453
3170.3997,22.8872
3172.3281,22.8252
3174.2566,22.7612
3176.1851,22.6986
3178.1135,22.6412
3180.0420,22.5915
3181.9705,22.5498
3183.8989,22.5135
3185.8274,22.4777
3187.7559,22.4371
3189.6843,22.388
3191.6128,22.33
3193.5413,22.2672
3195.4697,22.206
3197.3982,22.1519
3199.3267,22.1064
3201.2551,22.0662
3203.1836,22.0244
3205.1121,21.975
3207.0405,21.9156
3208.9690,21.8488
3210.8975,21.7807
3212.8259,21.718
3214.7544,21.6654
3216.6829,21.6235
3218.6113,21.5891
3220.5398,21.5568
3222.4683,21.5208
3224.3967,21.4778
3226.3252,21.4284
3228.2537,21.3763
3230.1821,21.3261
3232.1106,21.28
3234.0391,21.2365
3235.9675,21.1919
3237.8960,21.1431
3239.8245,21.0903
3241.7529,21.0372
3243.6814,20.988
3245.6099,20.9443
3247.5383,20.9041
3249.4668,20.8632
3251.3953,20.8186
3253.3237,20.771
3255.2522,20.7242
3257.1807,20.6821
3259.1091,20.6456
3261.0376,20.6115
3262.9661,20.5737
3264.8945,20.5265
3266.8230,20.4675
3268.7515,20.3994
3270.6799,20.329
3272.6084,20.2645
3274.5369,20.2128
3276.4653,20.1757
3278.3938,20.1496
3280.3223,20.1265
3282.2507,20.0973
3284.1792,20.0563
3286.1077,20.0036
3288.0361,19.9446
3289.9646,19.8874
3291.8931,19.8382
3293.8215,19.7993
3295.7500,19.7673
3297.6785,19.7357
3299.6069,19.6977
3301.5354,19.6495
3303.4639,19.5919
3305.3923,19.5303
3307.3208,19.4723
3309.2493,19.4241
3311.1777,19.3879
3313.1062,19.3603
3315.0347,19.3344
3316.9631,19.3033
3318.8916,19.2637
3320.8201,19.2167
3322.7485,19.1663
3324.6770,19.116
3326.6055,19.0664
3328.5339,19.0158
3330.4624,18.9622
3332.3909,18.9064
3334.3193,18.8519
3336.2478,18.8035
3338.1763,18.7636
3340.1047,18.7307
3342.0332,18.6999
3343.9617,18.6656
3345.8901,18.6241
3347.8186,18.5752
3349.7471,18.5207
3351.6755,18.463
3353.6040,18.4028
3355.5325,18.3398
3357.4609,18.2736
3359.3894,18.2058
3361.3179,18.1406
3363.2463,18.0834
3365.1748,18.0387
3367.1033,18.0073
3369.0317,17.9854
3370.9602,17.9661
3372.8887,17.9417
3374.8171,17.9072
3376.7456,17.8613
3378.6741,17.8065
3380.6025,17.7469
3382.5310,17.6853
3384.4595,17.6223
3386.3879,17.5569
3388.3164,17.4883
3390.2449,17.4184
3392.1733,17.3517
3394.1018,17.2934
3396.0303,17.2473
3397.9587,17.213
3399.8872,17.1872
3401.8157,17.165
3403.7441,17.1427
3405.6726,17.1178
3407.6011,17.0877
3409.5295,17.0485
3411.4580,16.9955
3413.3865,16.9264
3415.3149,16.8448
3417.2434,16.7608
3419.1719,16.687
3421.1003,16.6324
3423.0288,16.5974
3424.9573,16.5741
3426.8857,16.5513
3428.8142,16.5215
3430.7427,16.4823
3432.6711,16.4348
3434.5996,16.378
3436.5281,16.3078
3438.4565,16.2203
3440.3850,16.119
3442.3135,16.0185
3444.2419,15.9399
3446.1704,15.9007
3448.0989,15.9035
3450.0273,15.9327
3451.9558,15.9625
3453.8843,15.9691
3455.8127,15.9421
3457.7412,15.8872
3459.6697,15.8209
3461.5981,15.7606
3463.5266,15.7172
3465.4551,15.6919
3467.3835,15.6776
3469.3120,15.6628
3471.2405,15.6361
3473.1689,15.5905
3475.0974,15.5258
3477.0259,15.449
3478.9543,15.3726
3480.8828,15.3102
3482.8113,15.2718
3484.7397,15.26
3486.6682,15.2683
3488.5967,15.2826
3490.5251,15.2849
3492.4536,15.2595
3494.3821,15.1987
3496.3105,15.1063
3498.2390,14.9966
3500.1675,14.8896
3502.0959,14.8055
3504.0244,14.7588
3505.9529,14.7563
3507.8813,14.7941
3509.8098,14.8571
3511.7383,14.9198
3513.6667,14.9511
3515.5952,14.9248
3517.5237,14.8305
3519.4521,14.6811
3521.3806,14.5111
3523.3091,14.3654
3525.2375,14.2829
3527.1660,14.2824
3529.0945,14.3545
3531.0229,14.465
3532.9514,14.5661
3534.8799,14.6126
3536.8083,14.5771
3538.7368,14.4585
3540.6653,14.2812
3542.5938,14.0868
3544.5222,13.9217
3546.4507,13.8255
3548.3792,13.8195
3550.3076,13.8969
3552.2361,14.017
3554.1646,14.1096
3556.0930,14.0957
3558.0215,13.9221
3559.9500,13.594
3561.8784,13.187
3563.8069,12.8249
3565.7354,12.6295
3567.6638,12.6675
3569.5923,12.9199
3571.5208,13.2898
3573.4492,13.6421
3575.3777,13.8549
3577.3062,13.8598
3579.2346,13.6578
3581.1631,13.3108
3583.0916,12.9147
3585.0200,12.5669
3586.9485,12.3378
3588.8770,12.2546
3590.8054,12.3007
3592.7339,12.4291
3594.6624,12.5819
3596.5908,12.7075
3598.5193,12.7694
3600.4478,12.7464
3602.3762,12.6305
3604.3047,12.426
3606.2332,12.1527
3608.1616,11.8493
3610.0901,11.5702
3612.0186,11.3732
3613.9470,11.2967
3615.8755,11.3376
3617.8040,11.4429
3619.7324,11.5265
3621.6609,11.5093
3623.5894,11.3666
3625.5178,11.1556
3627.4463,10.9999
3629.3748,11.0333
3631.3032,11.3255
3633.2317,11.8306
3635.1602,12.3888
3637.0886,12.7856
3639.0171,12.8425
3640.9456,12.4958
3642.8740,11.8285
3644.8025,11.0407
3646.7310,10.3744
3648.6594,10.0265
3650.5879,10.0844
3652.5164,10.5081
3654.4448,11.1579
3656.3733,11.8494
3658.3018,12.409
3660.2302,12.7096
3662.1587,12.6833
3664.0872,12.3224
3666.0156,11.6842
3667.9441,10.8964
3669.8726,10.1486
3671.8010,9.64915
3673.7295,9.54724
3675.6580,9.85611
3677.5864,10.4265
3679.5149,11.0034
3681.4434,11.3471
3683.3718,11.3541
3685.3003,11.1035
3687.2288,10.8006
3689.1572,10.6534
3691.0857,10.7612
3693.0142,11.0786
3694.9426,11.4637
3696.8711,11.7641
3698.7996,11.883
3700.7280,11.7973
3702.6565,11.5413
3704.5850,11.1847
3706.5134,10.8185
3708.4419,10.5397
3710.3704,10.4216
3712.2988,10.4794
3714.2273,10.6562
3716.1558,10.8493
3718.0842,10.9629
3720.0127,10.9514
3721.9412,10.8222
3723.8696,10.6045
3725.7981,10.3172
3727.7266,9.96845
3729.6550,9.58217
3731.5835,9.21668
3733.5120,8.94608
3735.4404,8.81029
3737.3689,8.77593
3739.2974,8.74784
3741.2258,8.63187
3743.1543,8.40572
3745.0828,8.14517
3747.0112,7.98562
3748.9397,8.04567
3750.8682,8.36349
3752.7966,8.88176
3754.7251,9.48122
3756.6536,10.035
3758.5820,10.4534
3760.5105,10.7055
3762.4390,10.8164
3764.3674,10.8501
3766.2959,10.88
3768.2244,10.9576
3770.1528,11.0898
3772.0813,11.2397
3774.0098,11.3525
3775.9382,11.394
3777.8667,11.3753
3779.7952,11.3479
3781.7236,11.3698
3783.6521,11.4657
3785.5806,11.6051
3787.5090,11.7121
3789.4375,11.6988
3791.3660,11.5043
3793.2944,11.1222
3795.2229,10.6079
3797.1514,10.0671
3799.0798,9.62748
3801.0083,9.39868
3802.9368,9.42964
3804.8652,9.67998
3806.7937,10.0236
3808.7222,10.2929
3810.6506,10.3495
3812.5791,10.1497
3814.5076,9.76755
3816.4360,9.36139
3818.3645,9.09877
3820.2930,9.07875
3822.2214,9.28975
3824.1499,9.61978
3826.0784,9.90869
3828.0068,10.0161
3829.9353,9.8783
3831.8638,9.53538
3833.7922,9.12004
3835.7207,8.80686
3837.6492,8.73503
3839.5776,8.9347
3841.5061,9.29743
3843.4346,9.61856
3845.3630,9.70131
3847.2915,9.46924
3849.2200,9.0181
3851.1484,8.56836
3853.0769,8.34114
3855.0054,8.43257
3856.9338,8.7648
3858.8623,9.1422
3860.7908,9.373
3862.7192,9.37689
3864.6477,9.21468
3866.5762,9.03176
3868.5046,8.96167
3870.4331,9.05331
3872.3616,9.25941
3874.2900,9.4801
3876.2185,9.62482
3878.1470,9.65537
3880.0754,9.594
3882.0039,9.50281
3883.9324,9.45093
3885.8608,9.4833
3887.7893,9.5997
3889.7178,9.75025
3891.6462,9.85254
3893.5747,9.82949
3895.5032,9.65447
3897.4316,9.37948
3899.3601,9.12438
3901.2886,9.02464
3903.2170,9.16175
3905.1455,9.51538
3907.0740,9.9681
3909.0024,10.3626
3910.9309,10.5796
3912.8594,10.5909
3914.7878,10.4597
3916.7163,10.2927
3918.6448,10.1778
3920.5732,10.1449
3922.5017,10.17
3924.4302,10.209
3926.3586,10.2348
3928.2871,10.251
3930.2156,10.2798
3932.1440,10.3365
3934.0725,10.4126
3936.0010,10.4792
3937.9294,10.5058
3939.8579,10.4804
3941.7864,10.4182
3943.7148,10.3527
3945.6433,10.3179
3947.5718,10.3314
3949.5002,10.3882
3951.4287,10.4664
3953.3572,10.5402
3955.2856,10.5927
3957.2141,10.6205
3959.1426,10.6308
3961.0710,10.6338
3962.9995,10.6353
3964.9280,10.6351
3966.8564,10.6294
3968.7849,10.6165
3970.7134,10.5992
3972.6418,10.5838
3974.5703,10.5764
3976.4988,10.579
3978.4272,10.5885
3980.3557,10.5984
3982.2842,10.6022
3984.2126,10.5962
3986.1411,10.5815
3988.0696,10.5624
3989.9980,10.5449
3991.9265,10.5336
3993.8550,10.5303
3995.7834,10.5326
3997.7119,10.5354
3999.6404,10.5334
4001.5688,10.5234
4003.4973,10.5064
4005.4258,10.4866
4007.3542,10.4691
4009.2827,10.4568
4011.2112,10.4496
4013.1396,10.4446
4015.0681,10.4384
4016.9966,10.4291
4018.9250,10.4171
4020.8535,10.4043
4022.7820,10.393
4024.7104,10.3845
4026.6389,10.3789
4028.5674,10.3757
4030.4958,10.3735
4032.4243,10.3701
4034.3528,10.3634
4036.2813,10.3517
4038.2097,10.335
4040.1382,10.3157
4042.0667,10.2974
4043.9951,10.2838
4045.9236,10.2765
4047.8521,10.2743
4049.7805,10.2738
4051.7090,10.2716
4053.6375,10.2657
4055.5659,10.2564
4057.4944,10.2456
4059.4229,10.2354
4061.3513,10.2271
4063.2798,10.2204
4065.2083,10.214
4067.1367,10.2067
4069.0652,10.1974
4070.9937,10.1859
4072.9221,10.1729
4074.8506,10.1593
4076.7791,10.1461
4078.7075,10.134
4080.6360,10.1233
4082.5645,10.1138
4084.4929,10.1055
4086.4214,10.0983
4088.3499,10.0922
4090.2783,10.0872
4092.2068,10.0824
4094.1353,10.0765
4096.0640,10.068
4097.9922,10.0562
4099.9209,10.0417
4101.8491,10.0262
4103.7778,10.0123
4105.7061,10.002
4107.6348,9.99576
4109.5630,9.99229
4111.4917,9.98946
4113.4199,9.98529
4115.3486,9.97882
4117.2769,9.97033
4119.2056,9.96083
4121.1338,9.95123
4123.0625,9.94191
4124.9907,9.93258
4126.9194,9.92273
4128.8477,9.91209
4130.7764,9.90091
4132.7046,9.88988
4134.6333,9.87978
4136.5615,9.87108
4138.4902,9.86376
4140.4185,9.85735
4142.3472,9.85114
4144.2754,9.84453
4146.2041,9.8372
4148.1323,9.82914
4150.0610,9.82057
4151.9893,9.81182
4153.9180,9.80319
4155.8462,9.79487
4157.7749,9.78688
4159.7031,9.77911
4161.6318,9.77133
4163.5601,9.7633
4165.4888,9.75492
4167.4170,9.7462
4169.3457,9.73734
4171.2739,9.72853
4173.2026,9.71989
4175.1309,9.71146
4177.0596,9.70313
4178.9878,9.6948
4180.9165,9.6864
4182.8447,9.67792
4184.7734,9.66942
4186.7017,9.66095
4188.6304,9.65259
4190.5586,9.64439
4192.4873,9.63636
4194.4155,9.62843
4196.3442,9.62054
4198.2725,9.61259
4200.2012,9.60458
4202.1294,9.59655
4204.0581,9.58861
4205.9863,9.58082
4207.9150,9.57318
4209.8433,9.56554
4211.7720,9.55777
4213.7002,9.54975
4215.6289,9.5415
4217.5571,9.53313
4219.4858,9.52479
4221.4141,9.51658
4223.3428,9.50854
4225.2710,9.50066
4227.1997,9.4929
4229.1279,9.48521
4231.0566,9.47755
4232.9849,9.46984
4234.9136,9.46203
4236.8418,9.45404
4238.7705,9.44585
4240.6987,9.43747
4242.6274,9.42889
4244.5557,9.42016
4246.4844,9.41136
4248.4126,9.40261
4250.3413,9.39405
4252.2695,9.38581
4254.1982,9.3779
4256.1265,9.37019
4258.0552,9.36249
4259.9834,9.35458
4261.9121,9.34636
4263.8403,9.33785
4265.7690,9.32922
4267.6973,9.32068
4269.6260,9.3124
4271.5542,9.30445
4273.4829,9.29675
4275.4111,9.28915
4277.3398,9.28154
4279.2681,9.27385
4281.1968,9.26616
4283.1250,9.25857
4285.0537,9.25111
4286.9819,9.24377
4288.9106,9.23642
4290.8389,9.22895
4292.7676,9.2213
4294.6958,9.21351
4296.6245,9.20566
4298.5527,9.19782
4300.4814,9.19
4302.4097,9.18215
4304.3384,9.17422
4306.2666,9.1662
4308.1953,9.15814
4310.1235,9.1501
4312.0522,9.14215
4313.9805,9.13426
4315.9092,9.12634
4317.8374,9.11828
4319.7661,9.11005
4321.6943,9.10171
4323.6230,9.09338
4325.5513,9.08522
4327.4800,9.07729
4329.4082,9.06956
4331.3369,9.06192
4333.2651,9.05426
4335.1938,9.04651
4337.1221,9.03868
4339.0508,9.0308
4340.9790,9.02288
4342.9077,9.01488
4344.8359,9.00678
4346.7646,8.99855
4348.6929,8.99024
4350.6216,8.98193
4352.5498,8.97369
4354.4785,8.96555
4356.4067,8.95748
4358.3354,8.94943
4360.2637,8.94137
4362.1924,8.93328
4364.1206,8.92516
4366.0493,8.91701
4367.9775,8.90883
4369.9063,8.90067
4371.8345,8.89258
4373.7632,8.88463
4375.6914,8.87684
4377.6201,8.86916
4379.5483,8.86148
4381.4771,8.85367
4383.4053,8.84564
4385.3340,8.8374
4387.2622,8.82901
4389.1909,8.82059
4391.1191,8.81226
4393.0479,8.80406
4394.9761,8.79598
4396.9048,8.78793
4398.8330,8.77986
4400.7617,8.77172
4402.6899,8.76353
4404.6187,8.75536
4406.5469,8.74724
4408.4756,8.73914
4410.4038,8.73101
4412.3325,8.72276
4414.2607,8.71437
4416.1895,8.70586
4418.1177,8.69732
4420.0464,8.68885
4421.9746,8.68055
4423.9033,8.67245
4425.8315,8.66455
4427.7603,8.65679
4429.6885,8.64906
4431.6172,8.64126
4433.5454,8.63328
4435.4741,8.62508
4437.4023,8.61672
4439.3311,8.60833
4441.2593,8.60004
4443.1880,8.59196
4445.1162,8.58405
4447.0449,8.57623
4448.9731,8.56834
4450.9019,8.56031
4452.8301,8.5521
4454.7588,8.54376
4456.6870,8.53532
4458.6157,8.52679
4460.5439,8.51819
4462.4727,8.50953
4464.4009,8.5009
4466.3296,8.49244
4468.2578,8.48421
4470.1865,8.47621
4472.1147,8.46831
4474.0435,8.46037
4475.9717,8.45224
4477.9004,8.44391
4479.8286,8.43544
4481.7573,8.42692
4483.6855,8.41843
4485.6143,8.40998
4487.5425,8.40152
4489.4712,8.39302
4491.3994,8.38443
4493.3281,8.37579
4495.2563,8.36717
4497.1851,8.35865
4499.1133,8.3503
4501.0420,8.34208
4502.9702,8.33392
4504.8989,8.3257
4506.8271,8.31737
4508.7559,8.30894
4510.6841,8.30049
4512.6128,8.29215
4514.5410,8.28397
4516.4697,8.27593
4518.3979,8.26793
4520.3267,8.25988
4522.2549,8.25175
4524.1836,8.24356
4526.1118,8.2354
4528.0405,8.22733
4529.9688,8.21937
4531.8975,8.21147
4533.8257,8.20359
4535.7544,8.1957
4537.6826,8.18782
4539.6113,8.17998
4541.5396,8.17221
4543.4683,8.16451
4545.3965,8.15689
4547.3252,8.14931
4549.2534,8.14177
4551.1821,8.13425
4553.1104,8.12674
4555.0391,8.11925
4556.9673,8.1118
4558.8960,8.10444
4560.8242,8.09719
4562.7529,8.09005
4564.6812,8.08296
4566.6099,8.07581
4568.5381,8.06851
4570.4668,8.06103
4572.3950,8.05341
4574.3237,8.04572
4576.2520,8.03807
4578.1807,8.03051
4580.1089,8.02305
4582.0376,8.01566
4583.9658,8.00824
4585.8945,8.00075
4587.8228,7.99315
4589.7515,7.98546
4591.6797,7.97772
4593.6084,7.96998
4595.5366,7.9623
4597.4653,7.95467
4599.3936,7.9471
4601.3223,7.93954
4603.2505,7.93195
4605.1792,7.92428
4607.1074,7.9165
4609.0361,7.90863
4610.9644,7.90071
4612.8931,7.89279
4614.8213,7.88492
4616.7500,7.87712
4618.6782,7.86937
4620.6069,7.8616
4622.5352,7.8538
4624.4639,7.84595
4626.3921,7.83807
4628.3208,7.83019
4630.2490,7.8223
4632.1777,7.8144
4634.1060,7.80645
4636.0347,7.79846
4637.9629,7.79048
4639.8916,7.78258
4641.8198,7.77482
4643.7485,7.76716
4645.6768,7.75956
4647.6055,7.75193
4649.5337,7.74424
4651.4624,7.73653
4653.3906,7.72885
4655.3193,7.7213
4657.2476,7.71389
4659.1763,7.70659
4661.1045,7.6993
4663.0332,7.69192
4664.9614,7.6844
4666.8901,7.67671
4668.8184,7.6689
4670.7471,7.66106
4672.6753,7.65328
4674.6040,7.64564
4676.5322,7.63817
4678.4609,7.63084
4680.3892,7.6236
4682.3179,7.61641
4684.2461,7.60931
4686.1748,7.60235
4688.1030,7.59558
4690.0317,7.58896
4691.9600,7.58231
4693.8887,7.57541
4695.8169,7.56807
4697.7456,7.56024
4699.6738,7.55202
4701.6025,7.54358
4703.5308,7.53509
4705.4595,7.52664
4707.3877,7.5183
4709.3164,7.5101
4711.2446,7.50211
4713.1733,7.49439
4715.1016,7.48691
4717.0303,7.4796
4718.9585,7.47232
4720.8872,7.46495
4722.8154,7.45747
4724.7441,7.44995
4726.6724,7.44256
4728.6011,7.4354
4730.5293,7.42853
4732.4580,7.42185
4734.3862,7.41523
4736.3149,7.40855
4738.2432,7.40178
4740.1719,7.39499
4742.1001,7.38832
4744.0288,7.38189
4745.9570,7.37573
4747.8857,7.36977
4749.8140,7.36382
4751.7427,7.35772
4753.6709,7.35138
4755.5996,7.34482
4757.5278,7.3382
4759.4565,7.33171
4761.3848,7.32545
4763.3135,7.31942
4765.2417,7.31345
4767.1704,7.30731
4769.0986,7.30082
4771.0273,7.29391
4772.9556,7.28665
4774.8843,7.27922
4776.8125,7.27174
4778.7412,7.2643
4780.6694,7.25684
4782.5981,7.24933
4784.5264,7.24174
4786.4551,7.23413
4788.3833,7.22663
4790.3120,7.2193
4792.2402,7.21214
4794.1689,7.20505
4796.0972,7.1979
4798.0259,7.19064
4799.9541,7.18329
4801.8828,7.17598
4803.8110,7.16879
4805.7397,7.16176
4807.6680,7.1548
4809.5967,7.14776
4811.5249,7.14054
4813.4536,7.13312
4815.3818,7.12557
4817.3105,7.118
4819.2388,7.1105
4821.1675,7.1031
4823.0957,7.09574
4825.0244,7.08837
4826.9526,7.08092
4828.8813,7.07341
4830.8096,7.06589
4832.7383,7.05842
4834.6665,7.05105
4836.5952,7.04379
4838.5234,7.03654
4840.4521,7.0292
4842.3804,7.02168
4844.3091,7.01401
4846.2373,7.00629
4848.1660,6.9987
4850.0942,6.99138
4852.0229,6.98434
4853.9512,6.97747
4855.8799,6.97059
4857.8081,6.96356
4859.7368,6.95634
4861.6650,6.94903
4863.5938,6.94176
4865.5220,6.93466
4867.4507,6.92775
4869.3789,6.92093
4871.3076,6.91412
4873.2358,6.90721
4875.1646,6.90019
4877.0928,6.89309
4879.0215,6.88599
4880.9497,6.8789
4882.8784,6.87185
4884.8066,6.86477
4886.7354,6.85766
4888.6636,6.85047
4890.5923,6.84324
4892.5205,6.83599
4894.4492,6.82877
4896.3774,6.82163
4898.3062,6.81458
4900.2344,6.80763
4902.1631,6.80075
4904.0913,6.79388
4906.0200,6.78694
4907.9482,6.77988
4909.8770,6.7727
4911.8052,6.76547
4913.7339,6.75826
4915.6621,6.75114
4917.5908,6.74408
4919.5190,6.73705
4921.4478,6.72997
4923.3760,6.72287
4925.3047,6.71579
4927.2329,6.7088
4929.1616,6.70191
4931.0898,6.69507
4933.0186,6.68815
4934.9468,6.68108
4936.8755,6.67385
4938.8037,6.66654
4940.7324,6.65924
4942.6606,6.65201
4944.5894,6.64484
4946.5176,6.63768
4948.4463,6.63043
4950.3745,6.62309
4952.3032,6.61566
4954.2314,6.60821
4956.1602,6.60081
4958.0884,6.59352
4960.0171,6.58637
4961.9453,6.57935
4963.8740,6.57245
4965.8022,6.56566
4967.7310,6.55899
4969.6592,6.55247
4971.5879,6.54608
4973.5161,6.5397
4975.4448,6.53316
4977.3730,6.52627
4979.3018,6.51891
4981.2300,6.51109
4983.1587,6.503
4985.0869,6.4949
4987.0156,6.48706
4988.9438,6.47965
4990.8726,6.47277
4992.8008,6.46636
4994.7295,6.46031
4996.6577,6.45442
4998.5864,6.44849
5000.5146,6.44236
5002.4434,6.43594
5004.3716,6.42929
5006.3003,6.42255
5008.2285,6.41588
5010.1572,6.40937
5012.0854,6.40294
5014.0142,6.39644
5015.9424,6.3897
5017.8711,6.38268
5019.7993,6.37547
5021.7280,6.36824
5023.6563,6.36111
5025.5850,6.3541
5027.5132,6.34713
5029.4419,6.34013
5031.3701,6.33315
5033.2988,6.3263
5035.2271,6.3197
5037.1558,6.31332
5039.0840,6.30695
5041.0127,6.30031
5042.9409,6.29321
5044.8696,6.28571
5046.7979,6.27812
5048.7266,6.27082
5050.6548,6.26408
5052.5835,6.25791
5054.5117,6.25207
5056.4404,6.24619
5058.3687,6.23993
5060.2974,6.23313
5062.2256,6.2258
5064.1543,6.21811
5066.0825,6.21033
5068.0112,6.20274
5069.9395,6.19555
5071.8682,6.18884
5073.7964,6.18257
5075.7251,6.17655
5077.6533,6.17053
5079.5820,6.16428
5081.5103,6.15765
5083.4390,6.15055
5085.3672,6.14294
5087.2959,6.13487
5089.2241,6.1265
5091.1528,6.11816
5093.0811,6.11022
5095.0098,6.10297
5096.9380,6.09642
5098.8667,6.09031
5100.7949,6.08425
5102.7236,6.0779
5104.6519,6.07104
5106.5806,6.06358
5108.5088,6.05548
5110.4375,6.04684
5112.3657,6.03801
5114.2944,6.02965
5116.2227,6.02249
5118.1514,6.01689
5120.0796,6.01252
5122.0083,6.00848
5123.9365,6.00372
5125.8652,5.99755
5127.7935,5.98989
5129.7222,5.98103
5131.6504,5.9713
5133.5791,5.96101
5135.5073,5.95059
5137.4360,5.94078
5139.3643,5.93246
5141.2930,5.92604
5143.2212,5.92097
5145.1499,5.91566
5147.0781,5.90811
5149.0068,5.89693
5150.9351,5.88218
5152.8638,5.86552
5154.7920,5.84948
5156.7207,5.83638
5158.6489,5.82733
5160.5776,5.82188
5162.5059,5.81853
5164.4346,5.81581
5166.3628,5.81302
5168.2915,5.81024
5170.2197,5.80744
5172.1484,5.80351
5174.0767,5.79628
5176.0054,5.7837
5177.9336,5.76567
5179.8623,5.74486
5181.7905,5.72563
5183.7192,5.71183
5185.6475,5.70486
5187.5762,5.70344
5189.5044,5.70491
5191.4331,5.70641
5193.3613,5.70483
5195.2900,5.69598
5197.2183,5.67486
5199.1470,5.63836
5201.0752,5.58932
5203.0039,5.53853
5204.9321,5.50187
5206.8608,5.49272
5208.7891,5.51405
5210.7178,5.55535
5212.6460,5.59702
5214.5747,5.61995
5216.5029,5.61449
5218.4316,5.58381
5220.3599,5.54052
5222.2886,5.49967
5224.2168,5.47265
5226.1455,5.4646
5228.0737,5.47478
5230.0024,5.49805
5231.9307,5.52587
5233.8594,5.54742
5235.7876,5.55183
5237.7163,5.53197
5239.6445,5.4882
5241.5732,5.42967
5243.5015,5.37165
5245.4302,5.32968
5247.3584,5.31308
5249.2871,5.32104
5251.2153,5.34305
5253.1440,5.36373
5255.0723,5.36978
5257.0010,5.35608
5258.9292,5.32808
5260.8579,5.29939
5262.7861,5.28532
5264.7148,5.29557
5266.6431,5.32966
5268.5718,5.37731
5270.5000,5.42346
5272.4287,5.45511
5274.3569,5.46604
5276.2856,5.45752
5278.2139,5.4355
5280.1426,5.40677
5282.0708,5.37683
5283.9995,5.34991
5285.9277,5.33004
5287.8564,5.32106
5289.7847,5.32496
5291.7134,5.33971
5293.6416,5.35865
5295.5703,5.37267
5297.4985,5.37434
5299.4272,5.36162
5301.3555,5.33873
5303.2842,5.31393
5305.2124,5.29549
5307.1411,5.28825
5309.0693,5.29238
5310.9980,5.3041
5312.9263,5.3174
5314.8550,5.32559
5316.7832,5.32274
5318.7119,5.30528
5320.6401,5.27354
5322.5688,5.23219
5324.4971,5.18855
5326.4258,5.14873
5328.3540,5.11409
5330.2827,5.08051
5332.2109,5.04178
5334.1396,4.99495
5336.0679,4.94394
5337.9966,4.89834
5339.9248,4.86802
5341.8535,4.85745
5343.7817,4.86377
5345.7104,4.87997
5347.6387,4.90024
5349.5674,4.92326
5351.4956,4.95121
5353.4243,4.98578
5355.3525,5.02514
5357.2813,5.06399
5359.2095,5.09646
5361.1382,5.11862
5363.0664,5.12878
5364.9951,5.12594
5366.9233,5.10881
5368.8521,5.07719
5370.7803,5.03461
5372.7090,4.98953
5374.6372,4.95299
5376.5659,4.93341
5378.4941,4.93208
5380.4229,4.94226
5382.3511,4.95273
5384.2798,4.95349
5386.2080,4.94036
5388.1367,4.91651
5390.0649,4.89078
5391.9937,4.87398
5393.9219,4.87444
5395.8506,4.89387
5397.7788,4.92498
5399.7075,4.95249
5401.6357,4.95842
5403.5645,4.93054
5405.4927,4.86997
5407.4214,4.79345
5409.3496,4.7276
5411.2783,4.69724
5413.2065,4.71329
5415.1353,4.76691
5417.0635,4.83314
5418.9922,4.88235
5420.9204,4.89364
5422.8491,4.86345
5424.7773,4.80536
5426.7061,4.74204
5428.6343,4.69388
5430.5630,4.67026
5432.4912,4.6673
5434.4199,4.67236
5436.3481,4.67219
5438.2769,4.66036
5440.2051,4.64017
5442.1338,4.62224
5444.0620,4.61821
5445.9907,4.63406
5447.9189,4.6664
5449.8477,4.70366
5451.7759,4.73153
5453.7046,4.74002
5455.6328,4.72825
5457.5615,4.70448
5459.4897,4.68115
5461.4185,4.66776
5463.3467,4.66586
5465.2754,4.66917
5467.2036,4.66868
5469.1323,4.65944
5471.0605,4.6444
5472.9893,4.63271
5474.9175,4.63333
5476.8462,4.64836
5478.7744,4.67043
5480.7031,4.68621
5482.6313,4.68385
5484.5601,4.66005
5486.4883,4.62219
5488.4170,4.58463
5490.3452,4.56118
5492.2739,4.55842
5494.2021,4.57311
5496.1309,4.59493
5498.0591,4.61243
5499.9878,4.61857
5501.9160,4.61323
5503.8447,4.60169
5505.7729,4.59056
5507.7017,4.58399
5509.6299,4.5819
5511.5586,4.5812
5513.4868,4.57846
5515.4155,4.57233
5517.3438,4.56422
5519.2725,4.55694
5521.2007,4.55258
5523.1294,4.55104
5525.0576,4.55009
5526.9863,4.54688
5528.9146,4.53977
5530.8433,4.52931
5532.7715,4.51783
5534.7002,4.50791
5536.6284,4.50094
5538.5571,4.49642
5540.4854,4.4924
5542.4141,4.48677
5544.3423,4.4785
5546.2710,4.4681
5548.1992,4.45733
5550.1279,4.44809
5552.0562,4.44148
5553.9849,4.43727
5555.9131,4.43419
5557.8418,4.43067
5559.7700,4.42558
5561.6987,4.41867
5563.6270,4.41044
5565.5557,4.40172
5567.4839,4.39315
5569.4126,4.38502
5571.3408,4.37726
5573.2695,4.36966
5575.1978,4.3621
5577.1265,4.35452
5579.0547,4.34695
5580.9834,4.3394
5582.9116,4.33181
5584.8403,4.32412
5586.7686,4.31626
5588.6973,4.30815
5590.6255,4.29972
5592.5542,4.29096
5594.4824,4.28193
5596.4111,4.27285
5598.3394,4.26401
5600.2681,4.25569
5602.1963,4.24798
5604.1250,4.24071
5606.0532,4.23354
5607.9819,4.22609
5609.9102,4.21821
5611.8389,4.20993
5613.7671,4.20147
5615.6958,4.19302
5617.6240,4.18469
5619.5527,4.17644
5621.4810,4.16824
5623.4097,4.16008
5625.3379,4.152
5627.2666,4.14406
5629.1948,4.13622
5631.1235,4.12839
5633.0518,4.12045
5634.9805,4.11236
5636.9087,4.10413
5638.8374,4.09581
5640.7656,4.08744
5642.6943,4.07903
5644.6226,4.07056
5646.5513,4.06207
5648.4795,4.05361
5650.4082,4.04519
5652.3364,4.03681
5654.2651,4.02839
5656.1934,4.01987
5658.1221,4.01129
5660.0503,4.00276
5661.9790,3.99441
5663.9072,3.98631
5665.8359,3.97839
5667.7642,3.9705
5669.6929,3.96247
5671.6211,3.95424
5673.5498,3.94588
5675.4780,3.93751
5677.4067,3.92923
5679.3350,3.92103
5681.2637,3.91283
5683.1919,3.90454
5685.1206,3.89611
5687.0488,3.88757
5688.9775,3.87903
5690.9058,3.87057
5692.8345,3.8622
5694.7627,3.85389
5696.6914,3.8456
5698.6196,3.83731
5700.5483,3.82908
5702.4766,3.82095
5704.4053,3.81296
5706.3335,3.80506
5708.2622,3.79718
5710.1904,3.78922
5712.1191,3.78113
5714.0474,3.77291
5715.9761,3.76463
5717.9043,3.75636
5719.8330,3.74815
5721.7612,3.74003
5723.6899,3.73199
5725.6182,3.72402
5727.5469,3.7161
5729.4751,3.70821
5731.4038,3.70032
5733.3320,3.6924
5735.2607,3.68442
5737.1890,3.67635
5739.1177,3.66821
5741.0459,3.66005
5742.9746,3.65192
5744.9028,3.6439
5746.8315,3.63602
5748.7598,3.62825
5750.6885,3.62054
5752.6167,3.61282
5754.5454,3.60501
5756.4736,3.59707
5758.4023,3.58901
5760.3306,3.58088
5762.2593,3.57272
5764.1875,3.56458
5766.1162,3.55653
5768.0444,3.54857
5769.9731,3.54074
5771.9014,3.53302
5773.8301,3.52535
5775.7583,3.51766
5777.6870,3.50989
5779.6152,3.50198
5781.5439,3.49396
5783.4722,3.48591
5785.4009,3.47792
5787.3291,3.47006
5789.2578,3.46235
5791.1860,3.45475
5793.1147,3.44718
5795.0430,3.43955
5796.9717,3.43184
5798.8999,3.42406
5800.8286,3.41626
5802.7568,3.40847
5804.6855,3.40072
5806.6138,3.39302
5808.5425,3.38535
5810.4707,3.37772
5812.3994,3.37013
5814.3276,3.36254
5816.2563,3.35494
5818.1846,3.34725
5820.1133,3.33948
5822.0415,3.33164
5823.9702,3.32383
5825.8984,3.31615
5827.8271,3.30867
5829.7554,3.30133
5831.6841,3.29405
5833.6123,3.28669
5835.5410,3.2792
5837.4692,3.27161
5839.3979,3.26405
5841.3262,3.25659
5843.2549,3.24928
5845.1831,3.24204
5847.1118,3.23478
5849.0400,3.2274
5850.9688,3.2199
5852.8970,3.21233
5854.8257,3.20481
5856.7539,3.1974
5858.6826,3.19016
5860.6108,3.18305
5862.5396,3.17604
5864.4678,3.16906
5866.3965,3.16206
5868.3247,3.15502
5870.2534,3.14792
5872.1816,3.14075
5874.1104,3.13353
5876.0386,3.12629
5877.9673,3.11906
5879.8955,3.1119
5881.8242,3.10482
5883.7524,3.09782
5885.6812,3.09085
5887.6094,3.08383
5889.5381,3.07672
5891.4663,3.0695
5893.3950,3.06222
5895.3232,3.05494
5897.2520,3.04776
5899.1802,3.04074
5901.1089,3.03386
5903.0371,3.02705
5904.9658,3.02021
5906.8940,3.01324
5908.8228,3.0061
5910.7510,2.99884
5912.6797,2.99156
5914.6079,2.98438
5916.5366,2.97735
5918.4648,2.97046
5920.3936,2.96366
5922.3218,2.95684
5924.2505,2.94996
5926.1787,2.94302
5928.1074,2.93607
5930.0356,2.92919
5931.9644,2.9224
5933.8926,2.9157
5935.8213,2.90903
5937.7495,2.90231
5939.6782,2.89551
5941.6064,2.88861
5943.5352,2.88164
5945.4634,2.87467
5947.3921,2.86777
5949.3203,2.86098
5951.2490,2.8543
5953.1772,2.84773
5955.1060,2.84125
5957.0342,2.83484
5958.9629,2.82849
5960.8911,2.82212
5962.8198,2.81569
5964.7480,2.80913
5966.6768,2.80243
5968.6050,2.79567
5970.5337,2.78895
5972.4619,2.78236
5974.3906,2.77589
5976.3188,2.76947
5978.2476,2.763
5980.1758,2.75641
5982.1045,2.7497
5984.0327,2.74296
5985.9614,2.73627
5987.8896,2.72967
5989.8184,2.72316
5991.7466,2.71669
5993.6753,2.71021
5995.6035,2.70369
5997.5322,2.69713
5999.4604,2.69054
6001.3892,2.68397

##### Extended Information
[コメント情報]
試料名,test
コメント,test
測定者,test
所属,test
会社,NAIST

[データ情報]
作成日時,2026/02/12 12:28

データタイプ,等間隔データ
横軸,Wavenumber [cm-1]
縦軸,SB
スタート,998.946 cm-1
エンド,6001.39 cm-1
データ間隔,1.92847 cm-1
データ数,2595    

[測定情報]
機種名,FT/IR-4600typeA
シリアル番号,E137161786

測定日時,2026/02/12 12:28

光源,標準光源
検出器,TGS
積算回数,8
分解,8 cm-1
ゼロフィリング,On
アポダイゼーション,Cosine
ゲイン,Auto (1)
アパーチャー,Auto (7.1 mm)
スキャンスピード,Auto (2 mm/sec)
フィルタ,Auto (30000 Hz)

