TITLE,test
DATA TYPE,INFRARED SPECTRUM
ORIGIN,JASCO
OWNER,test
DATE,26/02/12
TIME,12:35:27
SPECTROMETER/DATA SYSTEM,
LOCALE,1041
RESOLUTION,
DELTAX,1.92847
XUNITS,1/CM
YUNITS,TRANSMITTANCE
FIRSTX,  998.9459
LASTX, 6001.3891
NPOINTS,    2595
FIRSTY,   153.61505
MAXY,   345.14767
MINY,   142.47850
XYDATA
998.9459,153.615
1000.8743,152.728
1002.8028,151.859
1004.7313,151.084
1006.6597,150.428
1008.5882,149.868
1010.5167,149.349
1012.4451,148.81
1014.3736,148.209
1016.3021,147.543
1018.2305,146.842
1020.1590,146.161
1022.0875,145.562
1024.0160,145.097
1025.9445,144.796
1027.8729,144.667
1029.8014,144.69
1031.7299,144.83
1033.6583,145.039
1035.5868,145.271
1037.5153,145.489
1039.4437,145.672
1041.3722,145.812
1043.3007,145.914
1045.2291,145.99
1047.1576,146.053
1049.0861,146.122
1051.0145,146.212
1052.9430,146.342
1054.8715,146.531
1056.7999,146.794
1058.7284,147.141
1060.6569,147.579
1062.5853,148.107
1064.5138,148.721
1066.4423,149.413
1068.3707,150.177
1070.2992,151.002
1072.2277,151.877
1074.1561,152.785
1076.0846,153.71
1078.0131,154.632
1079.9415,155.535
1081.8700,156.404
1083.7985,157.231
1085.7269,158.013
1087.6554,158.749
1089.5839,159.439
1091.5123,160.085
1093.4408,160.686
1095.3693,161.239
1097.2977,161.741
1099.2262,162.191
1101.1547,162.592
1103.0831,162.949
1105.0116,163.267
1106.9401,163.549
1108.8685,163.794
1110.7970,163.996
1112.7255,164.151
1114.6539,164.259
1116.5824,164.325
1118.5109,164.358
1120.4393,164.367
1122.3678,164.357
1124.2963,164.325
1126.2247,164.267
1128.1532,164.176
1130.0817,164.051
1132.0101,163.894
1133.9386,163.712
1135.8671,163.514
1137.7955,163.306
1139.7240,163.093
1141.6525,162.877
1143.5809,162.66
1145.5094,162.441
1147.4379,162.224
1149.3663,162.01
1151.2948,161.801
1153.2233,161.6
1155.1517,161.407
1157.0802,161.224
1159.0087,161.048
1160.9371,160.881
1162.8656,160.722
1164.7941,160.575
1166.7225,160.443
1168.6510,160.327
1170.5795,160.224
1172.5079,160.131
1174.4364,160.043
1176.3649,159.96
1178.2933,159.885
1180.2218,159.821
1182.1503,159.773
1184.0787,159.74
1186.0072,159.718
1187.9357,159.701
1189.8641,159.686
1191.7926,159.672
1193.7211,159.662
1195.6495,159.658
1197.5780,159.661
1199.5065,159.669
1201.4349,159.681
1203.3634,159.696
1205.2919,159.715
1207.2203,159.741
1209.1488,159.774
1211.0773,159.816
1213.0057,159.868
1214.9342,159.928
1216.8627,159.996
1218.7911,160.071
1220.7196,160.152
1222.6481,160.238
1224.5765,160.323
1226.5050,160.404
1228.4335,160.474
1230.3619,160.527
1232.2904,160.559
1234.2189,160.568
1236.1473,160.552
1238.0758,160.512
1240.0043,160.446
1241.9327,160.354
1243.8612,160.234
1245.7897,160.088
1247.7181,159.916
1249.6466,159.726
1251.5751,159.522
1253.5035,159.308
1255.4320,159.085
1257.3605,158.85
1259.2889,158.6
1261.2174,158.336
1263.1459,158.06
1265.0743,157.779
1267.0028,157.501
1268.9313,157.233
1270.8597,156.98
1272.7882,156.746
1274.7167,156.532
1276.6451,156.341
1278.5736,156.171
1280.5021,156.02
1282.4305,155.887
1284.3590,155.77
1286.2875,155.667
1288.2159,155.579
1290.1444,155.506
1292.0729,155.448
1294.0013,155.402
1295.9298,155.369
1297.8583,155.348
1299.7867,155.339
1301.7152,155.343
1303.6437,155.361
1305.5721,155.391
1307.5006,155.433
1309.4291,155.486
1311.3575,155.546
1313.2860,155.609
1315.2145,155.671
1317.1429,155.729
1319.0714,155.782
1320.9999,155.831
1322.9283,155.876
1324.8568,155.922
1326.7853,155.976
1328.7137,156.046
1330.6422,156.139
1332.5707,156.257
1334.4991,156.391
1336.4276,156.521
1338.3561,156.628
1340.2845,156.7
1342.2130,156.741
1344.1415,156.766
1346.0699,156.792
1347.9984,156.829
1349.9269,156.884
1351.8553,156.962
1353.7838,157.068
1355.7123,157.201
1357.6407,157.352
1359.5692,157.497
1361.4977,157.616
1363.4261,157.698
1365.3546,157.757
1367.2831,157.814
1369.2115,157.887
1371.1400,157.971
1373.0685,158.05
1374.9969,158.108
1376.9254,158.143
1378.8539,158.174
1380.7823,158.225
1382.7108,158.309
1384.6393,158.427
1386.5677,158.571
1388.4962,158.73
1390.4247,158.894
1392.3531,159.054
1394.2816,159.196
1396.2101,159.3
1398.1385,159.35
1400.0670,159.343
1401.9955,159.293
1403.9240,159.224
1405.8524,159.167
1407.7809,159.15
1409.7094,159.2
1411.6378,159.332
1413.5663,159.544
1415.4948,159.799
1417.4232,160.028
1419.3517,160.154
1421.2802,160.147
1423.2086,160.052
1425.1371,159.955
1427.0656,159.927
1428.9940,159.992
1430.9225,160.126
1432.8510,160.275
1434.7794,160.378
1436.7079,160.404
1438.6364,160.365
1440.5648,160.304
1442.4933,160.26
1444.4218,160.263
1446.3502,160.336
1448.2787,160.499
1450.2072,160.766
1452.1356,161.129
1454.0641,161.523
1455.9926,161.828
1457.9210,161.925
1459.8495,161.8
1461.7780,161.57
1463.7064,161.387
1465.6349,161.351
1467.5634,161.48
1469.4918,161.716
1471.4203,161.939
1473.3488,162.02
1475.2772,161.92
1477.2057,161.719
1479.1342,161.543
1481.0626,161.478
1482.9911,161.551
1484.9196,161.745
1486.8480,162.009
1488.7765,162.273
1490.7050,162.47
1492.6334,162.572
1494.5619,162.61
1496.4904,162.66
1498.4188,162.799
1500.3473,163.08
1502.2758,163.497
1504.2042,163.965
1506.1327,164.327
1508.0612,164.452
1509.9896,164.367
1511.9181,164.231
1513.8466,164.207
1515.7750,164.362
1517.7035,164.654
1519.6320,164.944
1521.5604,165.059
1523.4889,164.922
1525.4174,164.625
1527.3458,164.332
1529.2743,164.172
1531.2028,164.214
1533.1312,164.483
1535.0597,164.972
1536.9882,165.596
1538.9166,166.141
1540.8451,166.318
1542.7736,166.013
1544.7020,165.43
1546.6305,164.89
1548.5590,164.607
1550.4874,164.67
1552.4159,165.08
1554.3444,165.741
1556.2728,166.393
1558.2013,166.672
1560.1298,166.42
1562.0582,165.855
1563.9867,165.306
1565.9152,164.952
1567.8436,164.823
1569.7721,164.862
1571.7006,164.974
1573.6290,165.047
1575.5575,165.008
1577.4860,164.855
1579.4144,164.648
1581.3429,164.459
1583.2714,164.334
1585.1998,164.289
1587.1283,164.313
1589.0568,164.382
1590.9852,164.467
1592.9137,164.547
1594.8422,164.616
1596.7706,164.677
1598.6991,164.738
1600.6276,164.806
1602.5560,164.881
1604.4845,164.966
1606.4130,165.068
1608.3414,165.198
1610.2699,165.365
1612.1984,165.573
1614.1268,165.807
1616.0553,166.037
1617.9838,166.218
1619.9122,166.312
1621.8407,166.315
1623.7692,166.264
1625.6976,166.226
1627.6261,166.259
1629.5546,166.396
1631.4830,166.619
1633.4115,166.859
1635.3400,167.027
1637.2684,167.078
1639.1969,167.062
1641.1254,167.091
1643.0538,167.273
1644.9823,167.664
1646.9108,168.233
1648.8392,168.823
1650.7677,169.175
1652.6962,169.102
1654.6246,168.68
1656.5531,168.156
1658.4816,167.735
1660.4100,167.508
1662.3385,167.49
1664.2670,167.655
1666.1954,167.939
1668.1239,168.242
1670.0524,168.462
1671.9808,168.553
1673.9093,168.569
1675.8378,168.615
1677.7662,168.774
1679.6947,169.045
1681.6232,169.332
1683.5516,169.486
1685.4801,169.426
1687.4086,169.233
1689.3370,169.082
1691.2655,169.124
1693.1940,169.425
1695.1224,169.949
1697.0509,170.528
1698.9794,170.883
1700.9078,170.805
1702.8363,170.369
1704.7648,169.849
1706.6932,169.467
1708.6217,169.322
1710.5502,169.417
1712.4786,169.692
1714.4071,170.014
1716.3356,170.202
1718.2640,170.135
1720.1925,169.863
1722.1210,169.561
1724.0494,169.387
1725.9779,169.421
1727.9064,169.672
1729.8348,170.082
1731.7633,170.524
1733.6918,170.838
1735.6202,170.931
1737.5487,170.85
1739.4772,170.723
1741.4056,170.654
1743.3341,170.676
1745.2626,170.762
1747.1910,170.856
1749.1195,170.904
1751.0480,170.888
1752.9764,170.826
1754.9049,170.75
1756.8334,170.685
1758.7618,170.65
1760.6903,170.661
1762.6188,170.74
1764.5472,170.903
1766.4757,171.145
1768.4042,171.418
1770.3326,171.644
1772.2611,171.744
1774.1896,171.699
1776.1180,171.561
1778.0465,171.417
1779.9750,171.335
1781.9034,171.345
1783.8319,171.441
1785.7604,171.6
1787.6888,171.793
1789.6173,171.989
1791.5458,172.157
1793.4742,172.276
1795.4027,172.333
1797.3312,172.337
1799.2596,172.308
1801.1881,172.273
1803.1166,172.254
1805.0450,172.26
1806.9735,172.292
1808.9020,172.339
1810.8304,172.388
1812.7589,172.432
1814.6874,172.471
1816.6158,172.521
1818.5443,172.607
1820.4728,172.748
1822.4012,172.945
1824.3297,173.17
1826.2582,173.367
1828.1866,173.476
1830.1151,173.475
1832.0436,173.401
1833.9720,173.326
1835.9005,173.316
1837.8290,173.402
1839.7574,173.566
1841.6859,173.75
1843.6144,173.883
1845.5428,173.916
1847.4713,173.86
1849.3998,173.763
1851.3282,173.677
1853.2567,173.632
1855.1852,173.634
1857.1136,173.682
1859.0421,173.777
1860.9706,173.923
1862.8990,174.115
1864.8275,174.324
1866.7560,174.502
1868.6844,174.601
1870.6129,174.609
1872.5414,174.555
1874.4698,174.496
1876.3983,174.474
1878.3268,174.507
1880.2552,174.59
1882.1837,174.705
1884.1122,174.836
1886.0406,174.971
1887.9691,175.102
1889.8976,175.217
1891.8260,175.306
1893.7545,175.366
1895.6830,175.405
1897.6115,175.442
1899.5399,175.494
1901.4684,175.57
1903.3969,175.667
1905.3253,175.776
1907.2538,175.887
1909.1823,176
1911.1107,176.117
1913.0392,176.244
1914.9677,176.38
1916.8961,176.51
1918.8246,176.616
1920.7531,176.686
1922.6815,176.72
1924.6100,176.731
1926.5385,176.736
1928.4669,176.752
1930.3954,176.789
1932.3239,176.853
1934.2523,176.946
1936.1808,177.066
1938.1093,177.204
1940.0377,177.341
1941.9662,177.456
1943.8947,177.534
1945.8231,177.579
1947.7516,177.607
1949.6801,177.638
1951.6085,177.684
1953.5370,177.747
1955.4655,177.821
1957.3939,177.902
1959.3224,177.991
1961.2509,178.087
1963.1793,178.189
1965.1078,178.288
1967.0363,178.373
1968.9647,178.439
1970.8932,178.49
1972.8217,178.535
1974.7501,178.585
1976.6786,178.644
1978.6071,178.713
1980.5355,178.792
1982.4640,178.881
1984.3925,178.983
1986.3209,179.096
1988.2494,179.211
1990.1779,179.313
1992.1063,179.392
1994.0348,179.449
1995.9633,179.493
1997.8917,179.539
1999.8202,179.599
2001.7487,179.672
2003.6771,179.754
2005.6056,179.838
2007.5341,179.92
2009.4625,180.005
2011.3910,180.097
2013.3195,180.196
2015.2479,180.298
2017.1764,180.394
2019.1049,180.478
2021.0333,180.549
2022.9618,180.612
2024.8903,180.674
2026.8187,180.741
2028.7472,180.818
2030.6757,180.903
2032.6041,180.996
2034.5326,181.091
2036.4611,181.186
2038.3895,181.277
2040.3180,181.362
2042.2465,181.44
2044.1749,181.515
2046.1034,181.588
2048.0320,181.663
2049.9604,181.74
2051.8889,181.819
2053.8174,181.9
2055.7458,181.983
2057.6743,182.07
2059.6028,182.159
2061.5313,182.249
2063.4597,182.334
2065.3882,182.411
2067.3167,182.479
2069.2451,182.544
2071.1736,182.609
2073.1021,182.68
2075.0305,182.756
2076.9590,182.837
2078.8875,182.919
2080.8159,183
2082.7444,183.08
2084.6729,183.163
2086.6013,183.248
2088.5298,183.334
2090.4583,183.418
2092.3867,183.499
2094.3152,183.575
2096.2437,183.648
2098.1721,183.721
2100.1006,183.795
2102.0291,183.873
2103.9575,183.951
2105.8860,184.031
2107.8145,184.11
2109.7429,184.19
2111.6714,184.271
2113.5999,184.352
2115.5283,184.433
2117.4568,184.513
2119.3853,184.593
2121.3137,184.674
2123.2422,184.756
2125.1707,184.838
2127.0991,184.921
2129.0276,185.003
2130.9561,185.086
2132.8845,185.168
2134.8130,185.25
2136.7415,185.333
2138.6699,185.417
2140.5984,185.5
2142.5269,185.584
2144.4553,185.668
2146.3838,185.752
2148.3123,185.836
2150.2407,185.921
2152.1692,186.007
2154.0977,186.095
2156.0261,186.184
2157.9546,186.273
2159.8831,186.36
2161.8115,186.444
2163.7400,186.526
2165.6685,186.607
2167.5969,186.69
2169.5254,186.776
2171.4539,186.866
2173.3823,186.956
2175.3108,187.045
2177.2393,187.133
2179.1677,187.219
2181.0962,187.307
2183.0247,187.396
2184.9531,187.486
2186.8816,187.575
2188.8101,187.662
2190.7385,187.748
2192.6670,187.833
2194.5955,187.92
2196.5239,188.009
2198.4524,188.101
2200.3809,188.193
2202.3093,188.285
2204.2378,188.376
2206.1663,188.465
2208.0947,188.554
2210.0232,188.645
2211.9517,188.737
2213.8801,188.832
2215.8086,188.927
2217.7371,189.021
2219.6655,189.113
2221.5940,189.202
2223.5225,189.291
2225.4509,189.379
2227.3794,189.47
2229.3079,189.563
2231.2363,189.656
2233.1648,189.75
2235.0933,189.843
2237.0217,189.934
2238.9502,190.026
2240.8787,190.119
2242.8071,190.216
2244.7356,190.315
2246.6641,190.416
2248.5925,190.517
2250.5210,190.616
2252.4495,190.714
2254.3779,190.815
2256.3064,190.919
2258.2349,191.028
2260.1633,191.14
2262.0918,191.252
2264.0203,191.36
2265.9487,191.463
2267.8772,191.561
2269.8057,191.657
2271.7341,191.75
2273.6626,191.84
2275.5911,191.927
2277.5195,192.01
2279.4480,192.093
2281.3765,192.183
2283.3049,192.285
2285.2334,192.404
2287.1619,192.542
2289.0903,192.699
2291.0188,192.872
2292.9473,193.059
2294.8757,193.26
2296.8042,193.475
2298.7327,193.71
2300.6611,193.975
2302.5896,194.281
2304.5181,194.638
2306.4465,195.051
2308.3750,195.524
2310.3035,196.057
2312.2319,196.652
2314.1604,197.314
2316.0889,198.046
2318.0173,198.849
2319.9458,199.719
2321.8743,200.639
2323.8027,201.581
2325.7312,202.503
2327.6597,203.361
2329.5881,204.131
2331.5166,204.821
2333.4451,205.449
2335.3735,205.993
2337.3020,206.335
2339.2305,206.297
2341.1589,205.783
2343.0874,204.926
2345.0159,204.056
2346.9443,203.531
2348.8728,203.616
2350.8013,204.473
2352.7297,206.153
2354.6582,208.541
2356.5867,211.231
2358.5151,213.515
2360.4436,214.705
2362.3721,214.579
2364.3005,213.405
2366.2290,211.594
2368.1575,209.459
2370.0859,207.217
2372.0144,205.044
2373.9429,203.085
2375.8713,201.434
2377.7998,200.122
2379.7283,199.139
2381.6567,198.444
2383.5852,197.989
2385.5137,197.725
2387.4421,197.602
2389.3706,197.576
2391.2991,197.612
2393.2275,197.684
2395.1560,197.776
2397.0845,197.878
2399.0129,197.986
2400.9414,198.096
2402.8699,198.204
2404.7983,198.31
2406.7268,198.412
2408.6553,198.513
2410.5837,198.615
2412.5122,198.718
2414.4407,198.823
2416.3691,198.93
2418.2976,199.037
2420.2261,199.143
2422.1545,199.248
2424.0830,199.354
2426.0115,199.461
2427.9399,199.569
2429.8684,199.677
2431.7969,199.784
2433.7253,199.889
2435.6538,199.993
2437.5823,200.098
2439.5107,200.207
2441.4392,200.32
2443.3677,200.434
2445.2961,200.547
2447.2246,200.658
2449.1531,200.765
2451.0815,200.869
2453.0100,200.973
2454.9385,201.079
2456.8669,201.187
2458.7954,201.298
2460.7239,201.409
2462.6523,201.52
2464.5808,201.628
2466.5093,201.734
2468.4377,201.839
2470.3662,201.947
2472.2947,202.059
2474.2231,202.175
2476.1516,202.294
2478.0801,202.413
2480.0085,202.53
2481.9370,202.644
2483.8655,202.758
2485.7939,202.874
2487.7224,202.993
2489.6509,203.115
2491.5793,203.237
2493.5078,203.357
2495.4363,203.472
2497.3647,203.584
2499.2932,203.694
2501.2217,203.803
2503.1501,203.914
2505.0786,204.026
2507.0071,204.139
2508.9355,204.251
2510.8640,204.366
2512.7925,204.486
2514.7209,204.611
2516.6494,204.741
2518.5779,204.873
2520.5063,205.001
2522.4348,205.124
2524.3633,205.239
2526.2917,205.349
2528.2202,205.457
2530.1487,205.567
2532.0771,205.682
2534.0056,205.804
2535.9341,205.932
2537.8625,206.061
2539.7910,206.19
2541.7195,206.315
2543.6479,206.436
2545.5764,206.557
2547.5049,206.678
2549.4333,206.801
2551.3618,206.927
2553.2903,207.055
2555.2188,207.183
2557.1472,207.309
2559.0757,207.433
2561.0042,207.555
2562.9326,207.677
2564.8611,207.799
2566.7896,207.923
2568.7180,208.05
2570.6465,208.177
2572.5750,208.305
2574.5034,208.432
2576.4319,208.557
2578.3604,208.681
2580.2888,208.805
2582.2173,208.929
2584.1458,209.054
2586.0742,209.178
2588.0027,209.3
2589.9312,209.42
2591.8596,209.54
2593.7881,209.661
2595.7166,209.785
2597.6450,209.909
2599.5735,210.034
2601.5020,210.16
2603.4304,210.288
2605.3589,210.419
2607.2874,210.554
2609.2158,210.692
2611.1443,210.832
2613.0728,210.97
2615.0012,211.105
2616.9297,211.236
2618.8582,211.365
2620.7866,211.494
2622.7151,211.624
2624.6436,211.756
2626.5720,211.891
2628.5005,212.028
2630.4290,212.163
2632.3574,212.296
2634.2859,212.422
2636.2144,212.543
2638.1428,212.662
2640.0713,212.781
2641.9998,212.905
2643.9282,213.033
2645.8567,213.165
2647.7852,213.299
2649.7136,213.432
2651.6421,213.564
2653.5706,213.695
2655.4990,213.826
2657.4275,213.958
2659.3560,214.094
2661.2844,214.23
2663.2129,214.365
2665.1414,214.497
2667.0698,214.626
2668.9983,214.755
2670.9268,214.887
2672.8552,215.023
2674.7837,215.165
2676.7122,215.306
2678.6406,215.444
2680.5691,215.574
2682.4976,215.699
2684.4260,215.823
2686.3545,215.95
2688.2830,216.082
2690.2114,216.219
2692.1399,216.356
2694.0684,216.49
2695.9968,216.62
2697.9253,216.745
2699.8538,216.869
2701.7822,216.993
2703.7107,217.122
2705.6392,217.256
2707.5676,217.395
2709.4961,217.539
2711.4246,217.684
2713.3530,217.828
2715.2815,217.969
2717.2100,218.107
2719.1384,218.24
2721.0669,218.369
2722.9954,218.495
2724.9238,218.619
2726.8523,218.742
2728.7808,218.866
2730.7092,218.993
2732.6377,219.124
2734.5662,219.261
2736.4946,219.403
2738.4231,219.547
2740.3516,219.69
2742.2800,219.829
2744.2085,219.962
2746.1370,220.091
2748.0654,220.221
2749.9939,220.354
2751.9224,220.492
2753.8508,220.633
2755.7793,220.773
2757.7078,220.909
2759.6362,221.043
2761.5647,221.176
2763.4932,221.313
2765.4216,221.457
2767.3501,221.607
2769.2786,221.759
2771.2070,221.909
2773.1355,222.056
2775.0640,222.198
2776.9924,222.34
2778.9209,222.484
2780.8494,222.629
2782.7778,222.773
2784.7063,222.915
2786.6348,223.053
2788.5632,223.189
2790.4917,223.325
2792.4202,223.461
2794.3486,223.595
2796.2771,223.728
2798.2056,223.859
2800.1340,223.991
2802.0625,224.127
2803.9910,224.27
2805.9194,224.417
2807.8479,224.564
2809.7764,224.709
2811.7048,224.851
2813.6333,224.994
2815.5618,225.14
2817.4902,225.287
2819.4187,225.434
2821.3472,225.576
2823.2756,225.714
2825.2041,225.855
2827.1326,226.005
2829.0610,226.168
2830.9895,226.343
2832.9180,226.524
2834.8464,226.702
2836.7749,226.876
2838.7034,227.05
2840.6318,227.229
2842.5603,227.416
2844.4888,227.611
2846.4172,227.804
2848.3457,227.986
2850.2742,228.149
2852.2026,228.291
2854.1311,228.415
2856.0596,228.526
2857.9880,228.63
2859.9165,228.733
2861.8450,228.841
2863.7734,228.958
2865.7019,229.086
2867.6304,229.22
2869.5588,229.356
2871.4873,229.487
2873.4158,229.612
2875.3442,229.736
2877.2727,229.863
2879.2012,229.999
2881.1296,230.141
2883.0581,230.289
2884.9866,230.439
2886.9150,230.592
2888.8435,230.752
2890.7720,230.92
2892.7004,231.097
2894.6289,231.276
2896.5574,231.451
2898.4858,231.622
2900.4143,231.79
2902.3428,231.967
2904.2712,232.162
2906.1997,232.381
2908.1282,232.621
2910.0566,232.87
2911.9851,233.112
2913.9136,233.334
2915.8420,233.528
2917.7705,233.695
2919.6990,233.842
2921.6274,233.976
2923.5559,234.098
2925.4844,234.208
2927.4128,234.303
2929.3413,234.385
2931.2698,234.46
2933.1982,234.536
2935.1267,234.621
2937.0552,234.718
2938.9836,234.826
2940.9121,234.944
2942.8406,235.067
2944.7690,235.196
2946.6975,235.332
2948.6260,235.476
2950.5544,235.628
2952.4829,235.787
2954.4114,235.951
2956.3398,236.118
2958.2683,236.283
2960.1968,236.44
2962.1252,236.582
2964.0537,236.704
2965.9822,236.808
2967.9106,236.901
2969.8391,236.993
2971.7676,237.092
2973.6960,237.198
2975.6245,237.305
2977.5530,237.404
2979.4814,237.494
2981.4099,237.579
2983.3384,237.673
2985.2668,237.787
2987.1953,237.925
2989.1238,238.081
2991.0522,238.243
2992.9807,238.398
2994.9092,238.54
2996.8376,238.672
2998.7661,238.805
3000.6946,238.949
3002.6230,239.113
3004.5515,239.298
3006.4800,239.498
3008.4084,239.702
3010.3369,239.896
3012.2654,240.068
3014.1938,240.215
3016.1223,240.337
3018.0508,240.445
3019.9792,240.556
3021.9077,240.685
3023.8362,240.842
3025.7646,241.027
3027.6931,241.227
3029.6216,241.426
3031.5500,241.606
3033.4785,241.758
3035.4070,241.883
3037.3354,241.994
3039.2639,242.107
3041.1924,242.236
3043.1208,242.391
3045.0493,242.568
3046.9778,242.757
3048.9063,242.94
3050.8347,243.107
3052.7632,243.253
3054.6917,243.388
3056.6201,243.529
3058.5486,243.687
3060.4771,243.864
3062.4055,244.044
3064.3340,244.209
3066.2625,244.348
3068.1909,244.469
3070.1194,244.596
3072.0479,244.751
3073.9763,244.944
3075.9048,245.163
3077.8333,245.381
3079.7617,245.573
3081.6902,245.728
3083.6187,245.851
3085.5471,245.961
3087.4756,246.079
3089.4041,246.22
3091.3325,246.386
3093.2610,246.571
3095.1895,246.763
3097.1179,246.947
3099.0464,247.114
3100.9749,247.265
3102.9033,247.411
3104.8318,247.565
3106.7603,247.74
3108.6887,247.938
3110.6172,248.154
3112.5457,248.372
3114.4741,248.579
3116.4026,248.765
3118.3311,248.928
3120.2595,249.069
3122.1880,249.193
3124.1165,249.308
3126.0449,249.424
3127.9734,249.55
3129.9019,249.696
3131.8303,249.86
3133.7588,250.035
3135.6873,250.208
3137.6157,250.367
3139.5442,250.509
3141.4727,250.644
3143.4011,250.784
3145.3296,250.941
3147.2581,251.118
3149.1865,251.305
3151.1150,251.491
3153.0435,251.665
3154.9719,251.824
3156.9004,251.973
3158.8289,252.12
3160.7573,252.273
3162.6858,252.437
3164.6143,252.611
3166.5427,252.795
3168.4712,252.988
3170.3997,253.185
3172.3281,253.384
3174.2566,253.579
3176.1851,253.769
3178.1135,253.952
3180.0420,254.13
3181.9705,254.305
3183.8989,254.477
3185.8274,254.646
3187.7559,254.816
3189.6843,254.989
3191.6128,255.169
3193.5413,255.356
3195.4697,255.547
3197.3982,255.735
3199.3267,255.916
3201.2551,256.09
3203.1836,256.263
3205.1121,256.443
3207.0405,256.635
3208.9690,256.842
3210.8975,257.058
3212.8259,257.272
3214.7544,257.473
3216.6829,257.652
3218.6113,257.81
3220.5398,257.96
3222.4683,258.122
3224.3967,258.313
3226.3252,258.534
3228.2537,258.771
3230.1821,258.999
3232.1106,259.2
3234.0391,259.372
3235.9675,259.529
3237.8960,259.693
3239.8245,259.876
3241.7529,260.075
3243.6814,260.277
3245.6099,260.472
3247.5383,260.659
3249.4668,260.843
3251.3953,261.026
3253.3237,261.206
3255.2522,261.373
3257.1807,261.525
3259.1091,261.672
3261.0376,261.832
3262.9661,262.025
3264.8945,262.256
3266.8230,262.512
3268.7515,262.77
3270.6799,263.005
3272.6084,263.201
3274.5369,263.358
3276.4653,263.49
3278.3938,263.619
3280.3223,263.769
3282.2507,263.959
3284.1792,264.193
3286.1077,264.462
3288.0361,264.739
3289.9646,264.998
3291.8931,265.221
3293.8215,265.408
3295.7500,265.581
3297.6785,265.764
3299.6069,265.976
3301.5354,266.217
3303.4639,266.469
3305.3923,266.705
3307.3208,266.903
3309.2493,267.055
3311.1777,267.169
3313.1062,267.27
3315.0347,267.388
3316.9631,267.543
3318.8916,267.74
3320.8201,267.965
3322.7485,268.195
3324.6770,268.409
3326.6055,268.602
3328.5339,268.788
3330.4624,268.989
3332.3909,269.221
3334.3193,269.479
3336.2478,269.742
3338.1763,269.984
3340.1047,270.19
3342.0332,270.363
3343.9617,270.526
3345.8901,270.701
3347.8186,270.903
3349.7471,271.131
3351.6755,271.375
3353.6040,271.627
3355.5325,271.886
3357.4609,272.159
3359.3894,272.447
3361.3179,272.742
3363.2463,273.02
3365.1748,273.258
3367.1033,273.441
3369.0317,273.577
3370.9602,273.692
3372.8887,273.816
3374.8171,273.973
3376.7456,274.171
3378.6741,274.406
3380.6025,274.667
3382.5310,274.948
3384.4595,275.246
3386.3879,275.56
3388.3164,275.89
3390.2449,276.223
3392.1733,276.542
3394.1018,276.827
3396.0303,277.066
3397.9587,277.257
3399.8872,277.414
3401.8157,277.558
3403.7441,277.707
3405.6726,277.869
3407.6011,278.045
3409.5295,278.238
3411.4580,278.461
3413.3865,278.727
3415.3149,279.044
3417.2434,279.392
3419.1719,279.734
3421.1003,280.029
3423.0288,280.264
3424.9573,280.462
3426.8857,280.669
3428.8142,280.917
3430.7427,281.205
3432.6711,281.501
3434.5996,281.776
3436.5281,282.027
3438.4565,282.286
3440.3850,282.591
3442.3135,282.942
3444.2419,283.29
3446.1704,283.556
3448.0989,283.689
3450.0273,283.702
3451.9558,283.675
3453.8843,283.711
3455.8127,283.878
3457.7412,284.185
3459.6697,284.577
3461.5981,284.965
3463.5266,285.275
3465.4551,285.469
3467.3835,285.569
3469.3120,285.636
3471.2405,285.746
3473.1689,285.954
3475.0974,286.277
3477.0259,286.676
3478.9543,287.079
3480.8828,287.407
3482.8113,287.612
3484.7397,287.696
3486.6682,287.71
3488.5967,287.734
3490.5251,287.844
3492.4536,288.088
3494.3821,288.468
3496.3105,288.94
3498.2390,289.433
3500.1675,289.869
3502.0959,290.194
3504.0244,290.386
3505.9529,290.449
3507.8813,290.405
3509.8098,290.291
3511.7383,290.166
3513.6667,290.121
3515.5952,290.258
3517.5237,290.652
3519.4521,291.305
3521.3806,292.116
3523.3091,292.894
3525.2375,293.426
3527.1660,293.573
3529.0945,293.346
3531.0229,292.91
3532.9514,292.514
3534.8799,292.393
3536.8083,292.686
3538.7368,293.392
3540.6653,294.367
3542.5938,295.374
3544.5222,296.158
3546.4507,296.55
3548.3792,296.52
3550.3076,296.182
3552.2361,295.753
3554.1646,295.495
3556.0930,295.663
3558.0215,296.449
3559.9500,297.91
3561.8784,299.862
3563.8069,301.804
3565.7354,303.034
3567.6638,303.027
3569.5923,301.827
3571.5208,300.027
3573.4492,298.368
3575.3777,297.405
3577.3062,297.407
3579.2346,298.39
3581.1631,300.166
3583.0916,302.359
3585.0200,304.458
3586.9485,305.953
3588.8770,306.545
3590.8054,306.278
3592.7339,305.483
3594.6624,304.588
3596.5908,303.941
3598.5193,303.745
3600.4478,304.06
3602.3762,304.854
3604.3047,306.05
3606.2332,307.545
3608.1616,309.207
3610.0901,310.843
3612.0186,312.192
3613.9470,312.994
3615.8755,313.141
3617.8040,312.796
3619.7324,312.364
3621.6609,312.31
3623.5894,312.928
3625.5178,314.121
3627.4463,315.254
3629.3748,315.334
3631.3032,313.691
3633.2317,310.637
3635.1602,307.289
3637.0886,304.852
3639.0171,304.183
3640.9456,305.768
3642.8740,309.711
3644.8025,315.478
3646.7310,321.454
3648.6594,325.084
3650.5879,324.512
3652.5164,320.319
3654.4448,314.823
3656.3733,310.088
3658.3018,307.075
3660.2302,305.925
3662.1587,306.429
3664.0872,308.358
3666.0156,311.616
3667.9441,316.148
3669.8726,321.523
3671.8010,326.321
3673.7295,328.33
3675.6580,326.37
3677.5864,321.703
3679.5149,316.795
3681.4434,313.541
3683.3718,312.785
3685.3003,314.407
3687.2288,317.254
3689.1572,319.33
3691.0857,319.017
3693.0142,316.43
3694.9426,313.102
3696.8711,310.571
3698.7996,309.614
3700.7280,310.276
3702.6565,312.166
3704.5850,314.715
3706.5134,317.29
3708.4419,319.223
3710.3704,319.931
3712.2988,319.261
3714.2273,317.718
3716.1558,316.207
3718.0842,315.515
3720.0127,315.953
3721.9412,317.309
3723.8696,319.097
3725.7981,320.989
3727.7266,323.124
3729.6550,325.953
3731.5835,329.679
3733.5120,333.713
3735.4404,336.817
3737.3689,338.159
3739.2974,338.194
3741.2258,338.304
3743.1543,339.695
3745.0828,342.449
3747.0112,345.065
3748.9397,345.148
3750.8682,341.452
3752.7966,335.093
3754.7251,328.304
3756.6536,322.756
3758.5820,319.111
3760.5105,317.305
3762.4390,316.862
3764.3674,317.087
3766.2959,317.236
3768.2244,316.785
3770.1528,315.67
3772.0813,314.295
3774.0098,313.249
3775.9382,312.941
3777.8667,313.364
3779.7952,314.065
3781.7236,314.376
3783.6521,313.872
3785.5806,312.723
3787.5090,311.602
3789.4375,311.293
3791.3660,312.326
3793.2944,314.83
3795.2229,318.479
3797.1514,322.485
3799.0798,325.702
3801.0083,327.054
3802.9368,326.223
3804.8652,323.959
3806.7937,321.549
3808.7222,320.058
3810.6506,320.033
3812.5791,321.538
3814.5076,324.166
3816.4360,326.974
3818.3645,328.69
3820.2930,328.483
3822.2214,326.69
3824.1499,324.486
3826.0784,322.94
3828.0068,322.555
3829.9353,323.388
3831.8638,325.258
3833.7922,327.758
3835.7207,330.117
3837.6492,331.263
3839.5776,330.501
3841.5061,328.212
3843.4346,325.622
3845.3630,324.054
3847.2915,324.474
3849.2200,327.219
3851.1484,331.475
3853.0769,334.954
3855.0054,335.269
3856.9338,332.34
3858.8623,328.291
3860.7908,325.309
3862.7192,324.471
3864.6477,325.669
3866.5762,327.763
3868.5046,329.095
3870.4331,328.616
3872.3616,326.664
3874.2900,324.443
3876.2185,322.993
3878.1470,322.686
3880.0754,323.266
3882.0039,324.117
3883.9324,324.606
3885.8608,324.396
3887.7893,323.579
3889.7178,322.552
3891.6462,321.795
3893.5747,321.712
3895.5032,322.53
3897.4316,324.18
3899.3601,326.095
3901.2886,327.21
3903.2170,326.542
3905.1455,324.052
3907.0740,320.731
3909.0024,317.821
3910.9309,316.157
3912.8594,315.991
3914.7878,317.012
3916.7163,318.457
3918.6448,319.446
3920.5732,319.515
3922.5017,318.877
3924.4302,318.151
3926.3586,317.848
3928.2871,318.048
3930.2156,318.412
3932.1440,318.473
3934.0725,318.003
3936.0010,317.177
3937.9294,316.428
3939.8579,316.153
3941.7864,316.482
3943.7148,317.198
3945.6433,317.861
3947.5718,318.059
3949.5002,317.658
3951.4287,316.855
3953.3572,316.028
3955.2856,315.501
3957.2141,315.394
3959.1426,315.597
3961.0710,315.868
3962.9995,315.983
3964.9280,315.869
3966.8564,315.625
3968.7849,315.436
3970.7134,315.445
3972.6418,315.66
3974.5703,315.955
3976.4988,316.15
3978.4272,316.124
3980.3557,315.89
3982.2842,315.576
3984.2126,315.351
3986.1411,315.323
3988.0696,315.487
3989.9980,315.732
3991.9265,315.908
3993.8550,315.915
3995.7834,315.756
3997.7119,315.528
3999.6404,315.366
4001.5688,315.361
4003.4973,315.514
4005.4258,315.74
4007.3542,315.92
4009.2827,315.968
4011.2112,315.884
4013.1396,315.748
4015.0681,315.669
4016.9966,315.716
4018.9250,315.879
4020.8535,316.076
4022.7820,316.202
4024.7104,316.196
4026.6389,316.073
4028.5674,315.912
4030.4958,315.805
4032.4243,315.807
4034.3528,315.908
4036.2813,316.049
4038.2097,316.156
4040.1382,316.184
4042.0667,316.131
4043.9951,316.035
4045.9236,315.948
4047.8521,315.905
4049.7805,315.914
4051.7090,315.95
4053.6375,315.976
4055.5659,315.967
4057.4944,315.923
4059.4229,315.873
4061.3513,315.857
4063.2798,315.901
4065.2083,315.997
4067.1367,316.102
4069.0652,316.166
4070.9937,316.158
4072.9221,316.086
4074.8506,315.993
4076.7791,315.935
4078.7075,315.949
4080.6360,316.032
4082.5645,316.143
4084.4929,316.23
4086.4214,316.25
4088.3499,316.197
4090.2783,316.1
4092.2068,316.006
4094.1353,315.957
4096.0640,315.969
4097.9922,316.023
4099.9209,316.077
4101.8491,316.088
4103.7778,316.039
4105.7061,315.946
4107.6348,315.854
4109.5630,315.802
4111.4917,315.81
4113.4199,315.857
4115.3486,315.901
4117.2769,315.901
4119.2056,315.844
4121.1338,315.751
4123.0625,315.667
4124.9907,315.634
4126.9194,315.664
4128.8477,315.739
4130.7764,315.813
4132.7046,315.844
4134.6333,315.813
4136.5615,315.736
4138.4902,315.654
4140.4185,315.612
4142.3472,315.634
4144.2754,315.708
4146.2041,315.792
4148.1323,315.837
4150.0610,315.813
4151.9893,315.73
4153.9180,315.624
4155.8462,315.543
4157.7749,315.512
4159.7031,315.527
4161.6318,315.555
4163.5601,315.565
4165.4888,315.539
4167.4170,315.49
4169.3457,315.443
4171.2739,315.421
4173.2026,315.433
4175.1309,315.46
4177.0596,315.474
4178.9878,315.448
4180.9165,315.376
4182.8447,315.275
4184.7734,315.183
4186.7017,315.132
4188.6304,315.136
4190.5586,315.176
4192.4873,315.214
4194.4155,315.212
4196.3442,315.154
4198.2725,315.059
4200.2012,314.964
4202.1294,314.907
4204.0581,314.902
4205.9863,314.936
4207.9150,314.975
4209.8433,314.987
4211.7720,314.954
4213.7002,314.886
4215.6289,314.806
4217.5571,314.741
4219.4858,314.71
4221.4141,314.71
4223.3428,314.722
4225.2710,314.72
4227.1997,314.681
4229.1279,314.607
4231.0566,314.517
4232.9849,314.443
4234.9136,314.408
4236.8418,314.409
4238.7705,314.421
4240.6987,314.413
4242.6274,314.368
4244.5557,314.295
4246.4844,314.22
4248.4126,314.168
4250.3413,314.145
4252.2695,314.132
4254.1982,314.1
4256.1265,314.031
4258.0552,313.93
4259.9834,313.82
4261.9121,313.731
4263.8403,313.677
4265.7690,313.658
4267.6973,313.658
4269.6260,313.658
4271.5542,313.645
4273.4829,313.614
4275.4111,313.566
4277.3398,313.511
4279.2681,313.459
4281.1968,313.42
4283.1250,313.396
4285.0537,313.381
4286.9819,313.36
4288.9106,313.316
4290.8389,313.244
4292.7676,313.152
4294.6958,313.058
4296.6245,312.979
4298.5527,312.918
4300.4814,312.866
4302.4097,312.807
4304.3384,312.736
4306.2666,312.664
4308.1953,312.614
4310.1235,312.606
4312.0522,312.64
4313.9805,312.691
4315.9092,312.72
4317.8374,312.694
4319.7661,312.605
4321.6943,312.475
4323.6230,312.348
4325.5513,312.261
4327.4800,312.227
4329.4082,312.228
4331.3369,312.228
4333.2651,312.194
4335.1938,312.12
4337.1221,312.022
4339.0508,311.93
4340.9790,311.868
4342.9077,311.842
4344.8359,311.837
4346.7646,311.828
4348.6929,311.796
4350.6216,311.735
4352.5498,311.653
4354.4785,311.568
4356.4067,311.496
4358.3354,311.444
4360.2637,311.41
4362.1924,311.38
4364.1206,311.342
4366.0493,311.287
4367.9775,311.22
4369.9063,311.155
4371.8345,311.106
4373.7632,311.071
4375.6914,311.036
4377.6201,310.975
4379.5483,310.872
4381.4771,310.735
4383.4053,310.597
4385.3340,310.497
4387.2622,310.461
4389.1909,310.483
4391.1191,310.528
4393.0479,310.548
4394.9761,310.513
4396.9048,310.422
4398.8330,310.3
4400.7617,310.184
4402.6899,310.097
4404.6187,310.04
4406.5469,309.994
4408.4756,309.935
4410.4038,309.85
4412.3325,309.744
4414.2607,309.631
4416.1895,309.53
4418.1177,309.453
4420.0464,309.4
4421.9746,309.364
4423.9033,309.332
4425.8315,309.293
4427.7603,309.24
4429.6885,309.174
4431.6172,309.104
4433.5454,309.041
4435.4741,308.994
4437.4023,308.961
4439.3311,308.935
4441.2593,308.902
4443.1880,308.857
4445.1162,308.8
4447.0449,308.74
4448.9731,308.685
4450.9019,308.633
4452.8301,308.573
4454.7588,308.494
4456.6870,308.389
4458.6157,308.265
4460.5439,308.136
4462.4727,308.021
4464.4009,307.931
4466.3296,307.866
4468.2578,307.814
4470.1865,307.761
4472.1147,307.698
4474.0435,307.624
4475.9717,307.55
4477.9004,307.489
4479.8286,307.45
4481.7573,307.427
4483.6855,307.405
4485.6143,307.362
4487.5425,307.287
4489.4712,307.186
4491.3994,307.078
4493.3281,306.984
4495.2563,306.911
4497.1851,306.851
4499.1133,306.787
4501.0420,306.706
4502.9702,306.611
4504.8989,306.515
4506.8271,306.438
4508.7559,306.387
4510.6841,306.359
4512.6128,306.34
4514.5410,306.314
4516.4697,306.269
4518.3979,306.201
4520.3267,306.111
4522.2549,306.009
4524.1836,305.907
4526.1118,305.816
4528.0405,305.743
4529.9688,305.686
4531.8975,305.637
4533.8257,305.586
4535.7544,305.53
4537.6826,305.471
4539.6113,305.419
4541.5396,305.377
4543.4683,305.339
4545.3965,305.291
4547.3252,305.219
4549.2534,305.114
4551.1821,304.987
4553.1104,304.857
4555.0391,304.748
4556.9673,304.673
4558.8960,304.633
4560.8242,304.613
4562.7529,304.593
4564.6812,304.554
4566.6099,304.486
4568.5381,304.393
4570.4668,304.287
4572.3950,304.184
4574.3237,304.1
4576.2520,304.041
4578.1807,304
4580.1089,303.966
4582.0376,303.923
4583.9658,303.867
4585.8945,303.803
4587.8228,303.744
4589.7515,303.699
4591.6797,303.665
4593.6084,303.628
4595.5366,303.575
4597.4653,303.499
4599.3936,303.407
4601.3223,303.315
4603.2505,303.235
4605.1792,303.169
4607.1074,303.112
4609.0361,303.06
4610.9644,303.012
4612.8931,302.97
4614.8213,302.94
4616.7500,302.922
4618.6782,302.911
4620.6069,302.901
4622.5352,302.89
4624.4639,302.877
4626.3921,302.856
4628.3208,302.823
4630.2490,302.772
4632.1777,302.706
4634.1060,302.633
4636.0347,302.564
4637.9629,302.503
4639.8916,302.444
4641.8198,302.378
4643.7485,302.299
4645.6768,302.215
4647.6055,302.145
4649.5337,302.103
4651.4624,302.09
4653.3906,302.087
4655.3193,302.07
4657.2476,302.014
4659.1763,301.916
4661.1045,301.788
4663.0332,301.654
4664.9614,301.538
4666.8901,301.45
4668.8184,301.391
4670.7471,301.346
4672.6753,301.301
4674.6040,301.241
4676.5322,301.161
4678.4609,301.065
4680.3892,300.965
4682.3179,300.872
4684.2461,300.791
4686.1748,300.72
4688.1030,300.647
4690.0317,300.563
4691.9600,300.466
4693.8887,300.361
4695.8169,300.261
4697.7456,300.175
4699.6738,300.107
4701.6025,300.049
4703.5308,299.99
4705.4595,299.919
4707.3877,299.834
4709.3164,299.738
4711.2446,299.643
4713.1733,299.56
4715.1016,299.494
4717.0303,299.446
4718.9585,299.408
4720.8872,299.37
4722.8154,299.32
4724.7441,299.245
4726.6724,299.142
4728.6011,299.015
4730.5293,298.875
4732.4580,298.738
4734.3862,298.612
4736.3149,298.49
4738.2432,298.357
4740.1719,298.2
4742.1001,298.02
4744.0288,297.838
4745.9570,297.677
4747.8857,297.551
4749.8140,297.449
4751.7427,297.345
4753.6709,297.213
4755.5996,297.047
4757.5278,296.865
4759.4565,296.696
4761.3848,296.559
4763.3135,296.455
4765.2417,296.366
4767.1704,296.274
4769.0986,296.168
4771.0273,296.055
4772.9556,295.942
4774.8843,295.835
4776.8125,295.729
4778.7412,295.612
4780.6694,295.476
4782.5981,295.321
4784.5264,295.158
4786.4551,295.003
4788.3833,294.868
4790.3120,294.758
4792.2402,294.664
4794.1689,294.568
4796.0972,294.453
4798.0259,294.316
4799.9541,294.172
4801.8828,294.046
4803.8110,293.96
4805.7397,293.912
4807.6680,293.878
4809.5967,293.822
4811.5249,293.719
4813.4536,293.572
4815.3818,293.405
4817.3105,293.252
4819.2388,293.133
4821.1675,293.045
4823.0957,292.968
4825.0244,292.877
4826.9526,292.76
4828.8813,292.615
4830.8096,292.454
4832.7383,292.29
4834.6665,292.138
4836.5952,292.013
4838.5234,291.92
4840.4521,291.858
4842.3804,291.813
4844.3091,291.767
4846.2373,291.708
4848.1660,291.634
4850.0942,291.55
4852.0229,291.463
4853.9512,291.369
4855.8799,291.256
4857.8081,291.109
4859.7368,290.923
4861.6650,290.71
4863.5938,290.497
4865.5220,290.309
4867.4507,290.162
4869.3789,290.058
4871.3076,289.984
4873.2358,289.922
4875.1646,289.849
4877.0928,289.751
4879.0215,289.623
4880.9497,289.473
4882.8784,289.317
4884.8066,289.167
4886.7354,289.024
4888.6636,288.88
4890.5923,288.724
4892.5205,288.555
4894.4492,288.383
4896.3774,288.226
4898.3062,288.097
4900.2344,287.998
4902.1631,287.919
4904.0913,287.849
4906.0200,287.774
4907.9482,287.682
4909.8770,287.559
4911.8052,287.394
4913.7339,287.19
4915.6621,286.965
4917.5908,286.748
4919.5190,286.57
4921.4478,286.443
4923.3760,286.361
4925.3047,286.303
4927.2329,286.245
4929.1616,286.174
4931.0898,286.082
4933.0186,285.966
4934.9468,285.825
4936.8755,285.658
4938.8037,285.473
4940.7324,285.283
4942.6606,285.1
4944.5894,284.934
4946.5176,284.784
4948.4463,284.644
4950.3745,284.51
4952.3032,284.376
4954.2314,284.239
4956.1602,284.092
4958.0884,283.93
4960.0171,283.748
4961.9453,283.55
4963.8740,283.347
4965.8022,283.155
4967.7310,282.987
4969.6592,282.852
4971.5879,282.748
4973.5161,282.665
4975.4448,282.58
4977.3730,282.47
4979.3018,282.316
4981.2300,282.117
4983.1587,281.887
4985.0869,281.652
4987.0156,281.436
4988.9438,281.25
4990.8726,281.092
4992.8008,280.949
4994.7295,280.805
4996.6577,280.648
4998.5864,280.475
5000.5146,280.289
5002.4434,280.098
5004.3716,279.911
5006.3003,279.736
5008.2285,279.58
5010.1572,279.443
5012.0854,279.319
5014.0142,279.197
5015.9424,279.065
5017.8711,278.914
5019.7993,278.74
5021.7280,278.549
5023.6563,278.35
5025.5850,278.155
5027.5132,277.971
5029.4419,277.802
5031.3701,277.647
5033.2988,277.504
5035.2271,277.37
5037.1558,277.24
5039.0840,277.107
5041.0127,276.956
5042.9409,276.772
5044.8696,276.548
5046.7979,276.295
5048.7266,276.038
5050.6548,275.807
5052.5835,275.62
5054.5117,275.47
5056.4404,275.33
5058.3687,275.172
5060.2974,274.978
5062.2256,274.756
5064.1543,274.528
5066.0825,274.313
5068.0112,274.121
5069.9395,273.947
5071.8682,273.782
5073.7964,273.619
5075.7251,273.456
5077.6533,273.294
5079.5820,273.129
5081.5103,272.954
5083.4390,272.761
5085.3672,272.549
5087.2959,272.325
5089.2241,272.102
5091.1528,271.889
5093.0811,271.686
5095.0098,271.487
5096.9380,271.282
5098.8667,271.066
5100.7949,270.843
5102.7236,270.624
5104.6519,270.422
5106.5806,270.24
5108.5088,270.069
5110.4375,269.89
5112.3657,269.688
5114.2944,269.459
5116.2227,269.217
5118.1514,268.985
5120.0796,268.781
5122.0083,268.607
5123.9365,268.442
5125.8652,268.259
5127.7935,268.04
5129.7222,267.785
5131.6504,267.514
5133.5791,267.253
5135.5073,267.019
5137.4360,266.807
5139.3643,266.597
5141.2930,266.36
5143.2212,266.085
5145.1499,265.776
5147.0781,265.451
5149.0068,265.131
5150.9351,264.823
5152.8638,264.525
5154.7920,264.234
5156.7207,263.952
5158.6489,263.69
5160.5776,263.455
5162.5059,263.248
5164.4346,263.062
5166.3628,262.887
5168.2915,262.712
5170.2197,262.525
5172.1484,262.305
5174.0767,262.036
5176.0054,261.717
5177.9336,261.367
5179.8623,261.024
5181.7905,260.714
5183.7192,260.44
5185.6475,260.189
5187.5762,259.957
5189.5044,259.762
5191.4331,259.627
5193.3613,259.533
5195.2900,259.384
5197.2183,259.038
5199.1470,258.397
5201.0752,257.504
5203.0039,256.566
5204.9321,255.877
5206.8608,255.65
5208.7891,255.883
5210.7178,256.353
5212.6460,256.743
5214.5747,256.819
5216.5029,256.519
5218.4316,255.934
5220.3599,255.231
5222.2886,254.567
5224.2168,254.055
5226.1455,253.759
5228.0737,253.709
5230.0024,253.881
5231.9307,254.18
5233.8594,254.427
5235.7876,254.413
5237.7163,253.986
5239.6445,253.136
5241.5732,252.019
5243.5015,250.913
5245.4302,250.102
5247.3584,249.746
5249.2871,249.806
5251.2153,250.068
5253.1440,250.254
5255.0723,250.153
5257.0010,249.716
5258.9292,249.065
5260.8579,248.438
5262.7861,248.07
5264.7148,248.085
5266.6431,248.441
5268.5718,248.969
5270.5000,249.468
5272.4287,249.788
5274.3569,249.86
5276.2856,249.683
5278.2139,249.287
5280.1426,248.722
5282.0708,248.062
5283.9995,247.422
5285.9277,246.936
5287.8564,246.708
5289.7847,246.756
5291.7134,246.981
5293.6416,247.204
5295.5703,247.251
5297.4985,247.029
5299.4272,246.566
5301.3555,245.979
5303.2842,245.416
5305.2124,244.992
5307.1411,244.76
5309.0693,244.702
5310.9980,244.758
5312.9263,244.832
5314.8550,244.82
5316.7832,244.625
5318.7119,244.192
5320.6401,243.536
5322.5688,242.741
5324.4971,241.916
5326.4258,241.128
5328.3540,240.36
5330.2827,239.528
5332.2109,238.559
5334.1396,237.467
5336.0679,236.375
5337.9966,235.456
5339.9248,234.838
5341.8535,234.533
5343.7817,234.457
5345.7104,234.516
5347.6387,234.681
5349.5674,234.984
5351.4956,235.453
5353.4243,236.046
5355.3525,236.65
5357.2813,237.142
5359.2095,237.463
5361.1382,237.623
5363.0664,237.647
5364.9951,237.515
5366.9233,237.155
5368.8521,236.509
5370.7803,235.616
5372.7090,234.638
5374.6372,233.803
5376.5659,233.289
5378.4941,233.125
5380.4229,233.181
5382.3511,233.24
5384.2798,233.108
5386.2080,232.693
5388.1367,232.042
5390.0649,231.324
5391.9937,230.783
5393.9219,230.629
5395.8506,230.932
5397.7788,231.534
5399.7075,232.079
5401.6357,232.147
5403.5645,231.46
5405.4927,230.043
5407.4214,228.268
5409.3496,226.733
5411.2783,225.991
5413.2065,226.258
5415.1353,227.279
5417.0635,228.473
5418.9922,229.229
5420.9204,229.181
5422.8491,228.317
5424.7773,226.941
5426.7061,225.509
5428.6343,224.425
5430.5630,223.864
5432.4912,223.725
5434.4199,223.731
5436.3481,223.608
5438.2769,223.229
5440.2051,222.67
5442.1338,222.157
5444.0620,221.937
5445.9907,222.134
5447.9189,222.671
5449.8477,223.303
5451.7759,223.737
5453.7046,223.779
5455.6328,223.418
5457.5615,222.822
5459.4897,222.234
5461.4185,221.835
5463.3467,221.643
5465.2754,221.524
5467.2036,221.313
5469.1323,220.939
5471.0605,220.493
5472.9893,220.169
5474.9175,220.129
5476.8462,220.37
5478.7744,220.703
5480.7031,220.849
5482.6313,220.604
5484.5601,219.949
5486.4883,219.063
5488.4170,218.229
5490.3452,217.694
5492.2739,217.545
5494.2021,217.689
5496.1309,217.929
5498.0591,218.079
5499.9878,218.052
5501.9160,217.868
5503.8447,217.607
5505.7729,217.345
5507.7017,217.109
5509.6299,216.88
5511.5586,216.626
5513.4868,216.338
5515.4155,216.045
5517.3438,215.793
5519.2725,215.609
5521.2007,215.477
5523.1294,215.342
5525.0576,215.147
5526.9863,214.863
5528.9146,214.513
5530.8433,214.151
5532.7715,213.828
5534.7002,213.564
5536.6284,213.342
5538.5571,213.121
5540.4854,212.867
5542.4141,212.572
5544.3423,212.251
5546.2710,211.931
5548.1992,211.631
5550.1279,211.354
5552.0562,211.088
5553.9849,210.82
5555.9131,210.546
5557.8418,210.27
5559.7700,210.003
5561.6987,209.747
5563.6270,209.494
5565.5557,209.226
5567.4839,208.926
5569.4126,208.591
5571.3408,208.233
5573.2695,207.879
5575.1978,207.559
5577.1265,207.291
5579.0547,207.071
5580.9834,206.878
5582.9116,206.679
5584.8403,206.447
5586.7686,206.173
5588.6973,205.861
5590.6255,205.533
5592.5542,205.21
5594.4824,204.901
5596.4111,204.604
5598.3394,204.308
5600.2681,204.001
5602.1963,203.685
5604.1250,203.371
5606.0532,203.073
5607.9819,202.795
5609.9102,202.524
5611.8389,202.237
5613.7671,201.912
5615.6958,201.55
5617.6240,201.171
5619.5527,200.807
5621.4810,200.483
5623.4097,200.202
5625.3379,199.944
5627.2666,199.678
5629.1948,199.379
5631.1235,199.042
5633.0518,198.682
5634.9805,198.323
5636.9087,197.988
5638.8374,197.685
5640.7656,197.408
5642.6943,197.144
5644.6226,196.878
5646.5513,196.602
5648.4795,196.316
5650.4082,196.022
5652.3364,195.723
5654.2651,195.415
5656.1934,195.1
5658.1221,194.779
5660.0503,194.459
5661.9790,194.146
5663.9072,193.844
5665.8359,193.552
5667.7642,193.266
5669.6929,192.984
5671.6211,192.703
5673.5498,192.422
5675.4780,192.135
5677.4067,191.835
5679.3350,191.517
5681.2637,191.187
5683.1919,190.862
5685.1206,190.557
5687.0488,190.276
5688.9775,190.011
5690.9058,189.738
5692.8345,189.439
5694.7627,189.107
5696.6914,188.755
5698.6196,188.403
5700.5483,188.068
5702.4766,187.755
5704.4053,187.455
5706.3335,187.157
5708.2622,186.849
5710.1904,186.531
5712.1191,186.209
5714.0474,185.894
5715.9761,185.592
5717.9043,185.303
5719.8330,185.019
5721.7612,184.729
5723.6899,184.429
5725.6182,184.12
5727.5469,183.813
5729.4751,183.518
5731.4038,183.24
5733.3320,182.97
5735.2607,182.696
5737.1890,182.405
5739.1177,182.092
5741.0459,181.766
5742.9746,181.44
5744.9028,181.129
5746.8315,180.838
5748.7598,180.566
5750.6885,180.301
5752.6167,180.027
5754.5454,179.733
5756.4736,179.415
5758.4023,179.078
5760.3306,178.736
5762.2593,178.406
5764.1875,178.096
5766.1162,177.804
5768.0444,177.519
5769.9731,177.226
5771.9014,176.911
5773.8301,176.572
5775.7583,176.22
5777.6870,175.875
5779.6152,175.555
5781.5439,175.271
5783.4722,175.017
5785.4009,174.771
5787.3291,174.508
5789.2578,174.209
5791.1860,173.877
5793.1147,173.529
5795.0430,173.187
5796.9717,172.868
5798.8999,172.568
5800.8286,172.275
5802.7568,171.976
5804.6855,171.669
5806.6138,171.364
5808.5425,171.077
5810.4707,170.813
5812.3994,170.564
5814.3276,170.31
5816.2563,170.03
5818.1846,169.716
5820.1133,169.372
5822.0415,169.017
5823.9702,168.668
5825.8984,168.339
5827.8271,168.035
5829.7554,167.75
5831.6841,167.474
5833.6123,167.199
5835.5410,166.921
5837.4692,166.641
5839.3979,166.361
5841.3262,166.082
5843.2549,165.799
5845.1831,165.504
5847.1118,165.195
5849.0400,164.876
5850.9688,164.561
5852.8970,164.262
5854.8257,163.983
5856.7539,163.716
5858.6826,163.446
5860.6108,163.163
5862.5396,162.87
5864.4678,162.581
5866.3965,162.312
5868.3247,162.064
5870.2534,161.825
5872.1816,161.573
5874.1104,161.29
5876.0386,160.973
5877.9673,160.634
5879.8955,160.289
5881.8242,159.953
5883.7524,159.631
5885.6812,159.327
5887.6094,159.04
5889.5381,158.772
5891.4663,158.514
5893.3950,158.255
5895.3232,157.979
5897.2520,157.675
5899.1802,157.349
5901.1089,157.015
5903.0371,156.695
5904.9658,156.395
5906.8940,156.111
5908.8228,155.824
5910.7510,155.523
5912.6797,155.208
5914.6079,154.894
5916.5366,154.597
5918.4648,154.324
5920.3936,154.07
5922.3218,153.819
5924.2505,153.561
5926.1787,153.294
5928.1074,153.025
5930.0356,152.763
5931.9644,152.509
5933.8926,152.255
5935.8213,151.989
5937.7495,151.704
5939.6782,151.397
5941.6064,151.074
5943.5352,150.748
5945.4634,150.43
5947.3921,150.13
5949.3203,149.852
5951.2490,149.592
5953.1772,149.344
5955.1060,149.094
5957.0342,148.835
5958.9629,148.563
5960.8911,148.281
5962.8198,147.998
5964.7480,147.719
5966.6768,147.442
5968.6050,147.163
5970.5337,146.875
5972.4619,146.577
5974.3906,146.275
5976.3188,145.979
5978.2476,145.695
5980.1758,145.422
5982.1045,145.151
5984.0327,144.873
5985.9614,144.588
5987.8896,144.303
5989.8184,144.031
5991.7466,143.78
5993.6753,143.544
5995.6035,143.308
5997.5322,143.054
5999.4604,142.775
6001.3892,142.479

##### Extended Information
[コメント情報]
試料名,test
コメント,test
測定者,test
所属,test
会社,NAIST

[データ情報]
作成日時,2026/02/12 12:35

データタイプ,等間隔データ
横軸,Wavenumber [cm-1]
縦軸,%T
スタート,998.946 cm-1
エンド,6001.39 cm-1
データ間隔,1.92847 cm-1
データ数,2595    

[測定情報]
機種名,FT/IR-4600typeA
シリアル番号,E137161786

測定日時,2026/02/12 12:35

光源,標準光源
検出器,TGS
積算回数,8
分解,8 cm-1
ゼロフィリング,On
アポダイゼーション,Cosine
ゲイン,Auto (2)
アパーチャー,Auto (7.1 mm)
スキャンスピード,Auto (2 mm/sec)
フィルタ,Auto (30000 Hz)

