wavelength_nm
467.490552
467.620231
467.749911
467.87959
468.009269
468.138948
468.268628
468.398307
468.527986
468.657666
468.787345
468.917024
469.046703
469.176383
469.306062
469.435741
469.565421
469.6951
469.824779
469.954458
470.084138
470.213817
470.343496
470.473176
470.602855
470.732534
470.862213
470.991893
471.121572
471.251251
471.380931
471.51061
471.640289
471.769968
471.899648
472.029327
472.159006
472.288686
472.418365
472.548044
472.677723
472.807403
472.937082
473.066761
473.196441
473.32612
473.455799
473.585478
473.715158
473.844837
473.974516
474.104196
474.233875
474.363554
474.493233
474.622913
474.752592
474.882271
475.011951
475.14163
475.271309
475.400988
475.530668
475.660347
475.790026
475.919706
476.049385
476.179064
476.308743
476.438423
476.568102
476.697781
476.827461
476.95714
477.086819
477.216499
477.346178
477.475857
477.605536
477.735216
477.864895
477.994574
478.124254
478.253933
478.383612
478.513291
478.642971
478.77265
478.902329
479.032009
479.161688
479.291367
479.421046
479.550726
479.680405
479.810084
479.939764
480.069443
480.199122
480.328801
480.458481
480.58816
480.717839
480.847519
480.977198
481.106877
481.236556
481.366236
481.495915
481.625594
481.755274
481.884953
482.014632
482.144311
482.273991
482.40367
482.533349
482.663029
482.792708
482.922387
483.052066
483.181746
483.311425
483.441104
483.570784
483.700463
483.830142
483.959821
484.089501
484.21918
484.348859
484.478539
484.608218
484.737897
484.867576
484.997256
485.126935
485.256614
485.386294
485.515973
485.645652
485.775331
485.905011
486.03469
486.164369
486.294049
486.423728
486.553407
486.683086
486.812766
486.942445
487.072124
487.201804
487.331483
487.461162
487.590841
487.720521
487.8502
487.979879
488.109559
488.239238
488.368917
488.498596
488.628276
488.757955
488.887634
489.017314
489.146993
489.276672
489.406351
489.536031
489.66571
489.795389
489.925069
490.054748
490.184427
490.314106
490.443786
490.573465
490.703144
490.832824
490.962503
491.092182
491.221861
491.351541
491.48122
491.610899
491.740579
491.870258
491.999937
492.129616
492.259296
492.388975
492.518654
492.648334
492.778013
492.907692
493.037371
493.167051
493.29673
493.426409
493.556089
493.685768
493.815447
493.945126
494.074806
494.204485
494.334164
494.463844
494.593523
494.723202
494.852882
494.982561
495.11224
495.241919
495.371599
495.501278
495.630957
495.760637
495.890316
496.019995
496.149674
496.279354
496.409033
496.538712
496.668392
496.798071
496.92775
497.057429
497.187109
497.316788
497.446467
497.576147
497.705826
497.835505
497.965184
498.094864
498.224543
498.354222
498.483902
498.613581
498.74326
498.872939
499.002619
499.132298
499.261977
499.391657
499.521336
499.651015
499.780694
499.910374
500.040053
500.169732
500.299412
500.429091
500.55877
500.688449
500.818129
500.947808
501.077487
501.207167
501.336846
501.466525
501.596204
501.725884
501.855563
501.985242
502.114922
502.244601
502.37428
502.503959
502.633639
502.763318
502.892997
503.022677
503.152356
503.282035
503.411714
503.541394
503.671073
503.800752
503.930432
504.060111
504.18979
504.319469
504.449149
504.578828
504.708507
504.838187
504.967866
505.097545
505.227224
505.356904
505.486583
505.616262
505.745942
505.875621
506.0053
506.134979
506.264659
506.394338
506.524017
506.653697
506.783376
506.913055
507.042734
507.172414
507.302093
507.431772
507.561452
507.691131
507.82081
507.950489
508.080169
508.209848
508.339527
508.469207
508.598886
508.728565
508.858244
508.987924
509.117603
509.247282
509.376962
509.506641
509.63632
509.765999
509.895679
510.025358
510.155037
510.284717
510.414396
510.544075
510.673754
510.803434
510.933113
511.062792
511.192472
511.322151
511.45183
511.581509
511.711189
511.840868
511.970547
512.100227
512.229906
512.359585
512.489265
512.618944
512.748623
512.878302
513.007982
513.137661
513.26734
513.39702
513.526699
513.656378
513.786057
513.915737
514.045416
514.175095
514.304775
514.434454
514.564133
514.693812
514.823492
514.953171
515.08285
515.21253
515.342209
515.471888
515.601567
515.731247
515.860926
515.990605
516.120285
516.249964
516.379643
516.509322
516.639002
516.768681
516.89836
517.02804
517.157719
517.287398
517.417077
517.546757
517.676436
517.806115
517.935795
518.065474
518.195153
518.324832
518.454512
518.584191
518.71387
518.84355
518.973229
519.102908
519.232587
519.362267
519.491946
519.621625
519.751305
519.880984
520.010663
520.140342
520.270022
520.399701
520.52938
520.65906
520.788739
520.918418
521.048097
521.177777
521.307456
521.437135
521.566815
521.696494
521.826173
521.955852
522.085532
522.215211
522.34489
522.47457
522.604249
522.733928
522.863607
522.993287
523.122966
523.252645
523.382325
523.512004
523.641683
523.771362
523.901042
524.030721
524.1604
524.29008
524.419759
524.549438
524.679117
524.808797
524.938476
525.068155
525.197835
525.327514
525.457193
525.586872
525.716552
525.846231
525.97591
526.10559
526.235269
526.364948
526.494627
526.624307
526.753986
526.883665
527.013345
527.143024
527.272703
527.402382
527.532062
527.661741
527.79142
527.9211
528.050779
528.180458
528.310137
528.439817
528.569496
528.699175
528.828855
528.958534
529.088213
529.217892
529.347572
529.477251
529.60693
529.73661
529.866289
529.995968
530.125648
530.255327
530.385006
530.514685
530.644365
530.774044
530.903723
531.033403
531.163082
531.292761
531.42244
531.55212
531.681799
531.811478
531.941158
532.070837
532.200516
532.330195
532.459875
532.589554
532.719233
532.848913
532.978592
533.108271
533.23795
533.36763
533.497309
533.626988
533.756668
533.886347
534.016026
534.145705
534.275385
534.405064
534.534743
534.664423
534.794102
534.923781
535.05346
535.18314
535.312819
535.442498
535.572178
535.701857
535.831536
535.961215
536.090895
536.220574
536.350253
536.479933
536.609612
536.739291
536.86897
536.99865
537.128329
537.258008
537.387688
537.517367
537.647046
537.776725
537.906405
538.036084
538.165763
538.295443
538.425122
538.554801
538.68448
538.81416
538.943839
539.073518
539.203198
539.332877
539.462556
539.592235
539.721915
539.851594
539.981273
540.110953
540.240632
540.370311
540.49999
540.62967
540.759349
540.889028
541.018708
541.148387
541.278066
541.407745
541.537425
541.667104
541.796783
541.926463
542.056142
542.185821
542.3155
542.44518
542.574859
542.704538
542.834218
542.963897
543.093576
543.223255
543.352935
543.482614
543.612293
543.741973
543.871652
544.001331
544.13101
544.26069
544.390369
544.520048
544.649728
544.779407
544.909086
545.038765
545.168445
545.298124
545.427803
545.557483
545.687162
545.816841
545.94652
546.0762
546.205879
546.335558
546.465238
546.594917
546.724596
546.854275
546.983955
547.113634
547.243313
547.372993
547.502672
547.632351
547.762031
547.89171
548.021389
548.151068
548.280748
548.410427
548.540106
548.669786
548.799465
548.929144
549.058823
549.188503
549.318182
549.447861
549.577541
549.70722
549.836899
549.966578
550.096258
550.225937
550.355616
550.485296
550.614975
550.744654
550.874333
551.004013
551.133692
551.263371
551.393051
551.52273
551.652409
551.782088
551.911768
552.041447
552.171126
552.300806
552.430485
552.560164
552.689843
552.819523
552.949202
553.078881
553.208561
553.33824
553.467919
553.597598
553.727278
553.856957
553.986636
554.116316
554.245995
554.375674
554.505353
554.635033
554.764712
554.894391
555.024071
555.15375
555.283429
555.413108
555.542788
555.672467
555.802146
555.931826
556.061505
556.191184
556.320863
556.450543
556.580222
556.709901
556.839581
556.96926
557.098939
557.228618
557.358298
557.487977
557.617656
557.747336
557.877015
558.006694
558.136373
558.266053
558.395732
558.525411
558.655091
558.78477
558.914449
559.044128
559.173808
559.303487
559.433166
559.562846
559.692525
559.822204
559.951883
560.081563
560.211242
560.340921
560.470601
560.60028
560.729959
560.859638
560.989318
561.118997
561.248676
561.378356
561.508035
561.637714
561.767393
561.897073
562.026752
562.156431
562.286111
562.41579
562.545469
562.675148
562.804828
562.934507
563.064186
563.193866
563.323545
563.453224
563.582903
563.712583
563.842262
563.971941
564.101621
564.2313
564.360979
564.490658
564.620338
564.750017
564.879696
565.009376
565.139055
565.268734
565.398414
565.528093
565.657772
565.787451
565.917131
566.04681
566.176489
566.306169
566.435848
566.565527
566.695206
566.824886
566.954565
567.084244
567.213924
567.343603
567.473282
567.602961
567.732641
567.86232
567.991999
568.121679
568.251358
568.381037
568.510716
568.640396
568.770075
568.899754
569.029434
569.159113
569.288792
569.418471
569.548151
569.67783
569.807509
569.937189
570.066868
570.196547
570.326226
570.455906
570.585585
570.715264
570.844944
570.974623
571.104302
571.233981
571.363661
571.49334
571.623019
571.752699
571.882378
572.012057
572.141736
572.271416
572.401095
572.530774
572.660454
572.790133
572.919812
573.049491
573.179171
573.30885
573.438529
573.568209
573.697888
573.827567
573.957246
574.086926
574.216605
574.346284
574.475964
574.605643
574.735322
574.865001
574.994681
575.12436
575.254039
575.383719
575.513398
575.643077
575.772756
575.902436
576.032115
576.161794
576.291474
576.421153
576.550832
576.680511
576.810191
576.93987
577.069549
577.199229
577.328908
577.458587
577.588266
577.717946
577.847625
577.977304
578.106984
578.236663
578.366342
578.496021
578.625701
578.75538
578.885059
579.014739
579.144418
579.274097
579.403776
579.533456
579.663135
579.792814
579.922494
580.052173
580.181852
580.311531
580.441211
580.57089
580.700569
580.830249
580.959928
581.089607
581.219286
581.348966
581.478645
581.608324
581.738004
581.867683
581.997362
582.127041
582.256721
582.3864
582.516079
582.645759
582.775438
582.905117
583.034797
583.164476
583.294155
583.423834
583.553514
583.683193
583.812872
583.942552
584.072231
584.20191
584.331589
584.461269
584.590948
584.720627
584.850307
584.979986
585.109665
585.239344
585.369024
585.498703
585.628382
585.758062
585.887741
586.01742
586.147099
586.276779
586.406458
586.536137
586.665817
586.795496
586.925175
587.054854
587.184534
587.314213
587.443892
587.573572
587.703251
587.83293
587.962609
588.092289
588.221968
588.351647
588.481327
588.611006
588.740685
588.870364
589.000044
589.129723
589.259402
589.389082
589.518761
589.64844
589.778119
589.907799
590.037478
590.167157
590.296837
590.426516
590.556195
590.685874
590.815554
590.945233
591.074912
591.204592
591.334271
591.46395
591.593629
591.723309
591.852988
591.982667
592.112347
592.242026
592.371705
592.501384
592.631064
592.760743
592.890422
593.020102
593.149781
593.27946
593.409139
593.538819
593.668498
593.798177
593.927857
594.057536
594.187215
594.316894
594.446574
594.576253
594.705932
594.835612
594.965291
595.09497
595.224649
595.354329
595.484008
595.613687
595.743367
595.873046
596.002725
596.132404
596.262084
596.391763
596.521442
596.651122
596.780801
596.91048
597.040159
597.169839
597.299518
597.429197
597.558877
597.688556
597.818235
597.947914
598.077594
598.207273
598.336952
598.466632
598.596311
598.72599
598.855669
598.985349
599.115028
599.244707
599.374387
599.504066
599.633745
599.763424
599.893104
600.022783
600.152462
600.282142
600.411821
600.5415
600.67118
600.800859
600.930538
601.060217
601.189897
601.319576
601.449255
601.578935
601.708614
601.838293
601.967972
602.097652
602.227331
602.35701
602.48669
602.616369
602.746048
602.875727
603.005407
603.135086
603.264765
603.394445
603.524124
603.653803
603.783482
603.913162
604.042841
604.17252
604.3022
604.431879
604.561558
604.691237
604.820917
604.950596
605.080275
605.209955
605.339634
605.469313
605.598992
605.728672
605.858351
605.98803
606.11771
606.247389
606.377068
606.506747
606.636427
606.766106
606.895785
607.025465
607.155144
607.284823
607.414502
607.544182
607.673861
607.80354
607.93322
608.062899
608.192578
608.322257
608.451937
608.581616
608.711295
608.840975
608.970654
609.100333
609.230012
609.359692
609.489371
609.61905
609.74873
609.878409
610.008088
610.137767
610.267447
610.397126
610.526805
610.656485
610.786164
610.915843
611.045522
611.175202
611.304881
611.43456
611.56424
611.693919
611.823598
611.953277
612.082957
612.212636
612.342315
612.471995
612.601674
612.731353
612.861032
612.990712
613.120391
613.25007
613.37975
613.509429
613.639108
613.768787
613.898467
614.028146
614.157825
614.287505
614.417184
614.546863
614.676542
614.806222
614.935901
615.06558
615.19526
615.324939
615.454618
615.584297
615.713977
615.843656
615.973335
616.103015
616.232694
616.362373
616.492052
616.621732
616.751411
616.88109
617.01077
617.140449
617.270128
617.399807
617.529487
617.659166
617.788845
617.918525
618.048204
618.177883
618.307563
618.437242
618.566921
618.6966
618.82628
618.955959
619.085638
619.215318
619.344997
619.474676
619.604355
619.734035
619.863714
619.993393
620.123073
620.252752
620.382431
620.51211
620.64179
620.771469
620.901148
621.030828
621.160507
621.290186
621.419865
621.549545
621.679224
621.808903
621.938583
622.068262
622.197941
622.32762
622.4573
622.586979
622.716658
622.846338
622.976017
623.105696
623.235375
623.365055
623.494734
623.624413
623.754093
623.883772
624.013451
624.14313
624.27281
624.402489
624.532168
624.661848
624.791527
624.921206
625.050885
625.180565
625.310244
625.439923
625.569603
625.699282
625.828961
625.95864
626.08832
626.217999
626.347678
626.477358
626.607037
626.736716
626.866395
626.996075
627.125754
627.255433
627.385113
627.514792
627.644471
627.77415
627.90383
628.033509
628.163188
628.292868
628.422547
628.552226
628.681905
628.811585
628.941264
629.070943
629.200623
629.330302
629.459981
629.58966
629.71934
629.849019
629.978698
630.108378
630.238057
630.367736
630.497415
630.627095
630.756774
630.886453
631.016133
631.145812
631.275491
631.40517
631.53485
631.664529
631.794208
631.923888
632.053567
632.183246
632.312925
632.442605
632.572284
632.701963
632.831643
632.961322
633.091001
633.22068
633.35036
633.480039
633.609718
633.739398
633.869077
633.998756
634.128435
634.258115
634.387794
634.517473
634.647153
634.776832
634.906511
635.03619
635.16587
635.295549
635.425228
635.554908
635.684587
635.814266
635.943946
636.073625
636.203304
636.332983
636.462663
636.592342
636.722021
636.851701
636.98138
637.111059
637.240738
637.370418
637.500097
637.629776
637.759456
637.889135
638.018814
638.148493
638.278173
638.407852
638.537531
638.667211
638.79689
638.926569
639.056248
639.185928
639.315607
639.445286
639.574966
639.704645
639.834324
639.964003
640.093683
640.223362
640.353041
640.482721
640.6124
640.742079
640.871758
641.001438
641.131117
641.260796
641.390476
641.520155
641.649834
641.779513
641.909193
642.038872
642.168551
642.298231
642.42791
642.557589
642.687268
642.816948
642.946627
643.076306
643.205986
643.335665
643.465344
643.595023
643.724703
643.854382
643.984061
644.113741
644.24342
644.373099
644.502778
644.632458
644.762137
644.891816
645.021496
645.151175
645.280854
645.410533
645.540213
645.669892
645.799571
645.929251
646.05893
646.188609
646.318288
646.447968
646.577647
646.707326
646.837006
646.966685
647.096364
647.226043
647.355723
647.485402
647.615081
647.744761
647.87444
648.004119
648.133798
648.263478
648.393157
648.522836
648.652516
648.782195
648.911874
649.041553
649.171233
649.300912
649.430591
649.560271
649.68995
649.819629
649.949308
650.078988
650.208667
650.338346
650.468026
650.597705
650.727384
650.857063
650.986743
651.116422
651.246101
651.375781
651.50546
651.635139
651.764818
651.894498
652.024177
652.153856
652.283536
652.413215
652.542894
652.672573
652.802253
652.931932
653.061611
653.191291
653.32097
653.450649
653.580329
653.710008
653.839687
653.969366
654.099046
654.228725
654.358404
654.488084
654.617763
654.747442
654.877121
655.006801
655.13648
655.266159
655.395839
655.525518
655.655197
655.784876
655.914556
656.044235
656.173914
656.303594
656.433273
656.562952
656.692631
656.822311
656.95199
657.081669
657.211349
657.341028
657.470707
657.600386
657.730066
657.859745
657.989424
658.119104
658.248783
658.378462
658.508141
658.637821
658.7675
658.897179
659.026859
659.156538
659.286217
659.415896
659.545576
659.675255
659.804934
659.934614
660.064293
660.193972
660.323651
660.453331
660.58301
660.712689
660.842369
660.972048
661.101727
661.231406
661.361086
661.490765
661.620444
661.750124
661.879803
662.009482
662.139161
662.268841
662.39852
662.528199
662.657879
662.787558
662.917237
663.046916
663.176596
663.306275
663.435954
663.565634
663.695313
663.824992
663.954671
664.084351
664.21403
664.343709
664.473389
664.603068
664.732747
664.862426
664.992106
665.121785
665.251464
665.381144
665.510823
665.640502
665.770181
665.899861
666.02954
666.159219
666.288899
666.418578
666.548257
666.677936
666.807616
666.937295
667.066974
667.196654
667.326333
667.456012
667.585691
667.715371
667.84505
667.974729
668.104409
668.234088
668.363767
668.493446
668.623126
668.752805
668.882484
669.012164
669.141843
669.271522
669.401201
669.530881
669.66056
669.790239
669.919919
670.049598
670.179277
670.308956
670.438636
670.568315
670.697994
670.827674
670.957353
671.087032
671.216712
671.346391
671.47607
671.605749
671.735429
671.865108
671.994787
672.124467
672.254146
672.383825
672.513504
672.643184
672.772863
672.902542
673.032222
673.161901
673.29158
673.421259
673.550939
673.680618
673.810297
673.939977
674.069656
674.199335
674.329014
674.458694
674.588373
674.718052
674.847732
674.977411
675.10709
675.236769
675.366449
675.496128
675.625807
675.755487
675.885166
676.014845
676.144524
676.274204
676.403883
676.533562
676.663242
676.792921
676.9226
677.052279
677.181959
677.311638
677.441317
677.570997
677.700676
677.830355
677.960034
678.089714
678.219393
678.349072
678.478752
678.608431
678.73811
678.867789
678.997469
679.127148
679.256827
679.386507
679.516186
679.645865
679.775544
679.905224
680.034903
680.164582
680.294262
680.423941
680.55362
680.683299
680.812979
680.942658
681.072337
681.202017
681.331696
681.461375
681.591054
681.720734
681.850413
681.980092
682.109772
682.239451
682.36913
682.498809
682.628489
682.758168
682.887847
683.017527
683.147206
683.276885
683.406564
683.536244
683.665923
683.795602
683.925282
684.054961
684.18464
684.314319
684.443999
684.573678
684.703357
684.833037
684.962716
685.092395
685.222074
685.351754
685.481433
685.611112
685.740792
685.870471
686.00015
686.129829
686.259509
686.389188
686.518867
686.648547
686.778226
686.907905
687.037584
687.167264
687.296943
687.426622
687.556302
687.685981
687.81566
687.945339
688.075019
688.204698
688.334377
688.464057
688.593736
688.723415
688.853095
688.982774
689.112453
689.242132
689.371812
689.501491
689.63117
689.76085
689.890529
690.020208
690.149887
690.279567
690.409246
690.538925
690.668605
690.798284
690.927963
691.057642
691.187322
691.317001
691.44668
691.57636
691.706039
691.835718
691.965397
692.095077
692.224756
692.354435
692.484115
692.613794
692.743473
692.873152
693.002832
693.132511
693.26219
693.39187
693.521549
693.651228
693.780907
693.910587
694.040266
694.169945
694.299625
694.429304
694.558983
694.688662
694.818342
694.948021
695.0777
695.20738
695.337059
695.466738
695.596417
695.726097
695.855776
695.985455
696.115135
696.244814
696.374493
696.504172
696.633852
696.763531
696.89321
697.02289
697.152569
697.282248
697.411927
697.541607
697.671286
697.800965
697.930645
698.060324
698.190003
698.319682
698.449362
698.579041
698.70872
698.8384
698.968079
699.097758
699.227437
699.357117
699.486796
699.616475
699.746155
699.875834
700.005513
700.135192
700.264872
700.394551
700.52423
700.65391
700.783589
700.913268
701.042947
701.172627
701.302306
701.431985
701.561665
701.691344
701.821023
701.950702
702.080382
702.210061
702.33974
702.46942
702.599099
702.728778
702.858457
702.988137
703.117816
703.247495
703.377175
703.506854
703.636533
703.766212
703.895892
704.025571
704.15525
704.28493
704.414609
704.544288
704.673967
704.803647
704.933326
705.063005
705.192685
705.322364
705.452043
705.581722
705.711402
705.841081
705.97076
706.10044
706.230119
706.359798
706.489478
706.619157
706.748836
706.878515
707.008195
707.137874
707.267553
707.397233
707.526912
707.656591
707.78627
707.91595
708.045629
708.175308
708.304988
708.434667
708.564346
708.694025
708.823705
708.953384
709.083063
709.212743
709.342422
709.472101
709.60178
709.73146
709.861139
709.990818
710.120498
710.250177
710.379856
710.509535
710.639215
710.768894
710.898573
711.028253
711.157932
711.287611
711.41729
711.54697
711.676649
711.806328
711.936008
712.065687
712.195366
712.325045
712.454725
712.584404
712.714083
712.843763
712.973442
713.103121
713.2328
713.36248
713.492159
713.621838
713.751518
713.881197
714.010876
714.140555
714.270235
714.399914
714.529593
714.659273
714.788952
714.918631
715.04831
715.17799
715.307669
715.437348
715.567028
715.696707
715.826386
715.956065
716.085745
716.215424
716.345103
716.474783
716.604462
716.734141
716.86382
716.9935
717.123179
717.252858
717.382538
717.512217
717.641896
717.771575
717.901255
718.030934
718.160613
718.290293
718.419972
718.549651
718.67933
718.80901
718.938689
719.068368
719.198048
719.327727
719.457406
719.587085
719.716765
719.846444
719.976123
720.105803
720.235482
720.365161
720.49484
720.62452
720.754199
720.883878
721.013558
721.143237
721.272916
721.402595
721.532275
721.661954
721.791633
721.921313
722.050992
722.180671
722.31035
722.44003
722.569709
722.699388
722.829068
722.958747
723.088426
723.218105
723.347785
723.477464
723.607143
723.736823
723.866502
723.996181
724.125861
724.25554
724.385219
724.514898
724.644578
724.774257
724.903936
725.033616
725.163295
725.292974
725.422653
725.552333
725.682012
725.811691
725.941371
726.07105
726.200729
726.330408
726.460088
726.589767
726.719446
726.849126
726.978805
727.108484
727.238163
727.367843
727.497522
727.627201
727.756881
727.88656
728.016239
728.145918
728.275598
728.405277
728.534956
728.664636
728.794315
728.923994
729.053673
729.183353
729.313032
729.442711
729.572391
729.70207
729.831749
729.961428
730.091108
730.220787
730.350466
730.480146
730.609825
730.739504
730.869183
730.998863
731.128542
731.258221
731.387901
731.51758
731.647259
731.776938
731.906618
732.036297
732.165976
732.295656
732.425335
732.555014
732.684693
732.814373
732.944053
